01/10/2013	17:55:37	Ver.	4.1	RS 320/100
Optical Delay	558.552317	Delta X		0.078125	Sweeps	1	Scan Rate	100/320
Coordinates	Axis 1	NaN	Axis 2	NaN	Axis 3	NaN	Axis 4	NaN	Axis 5	NaN	Axis 6	0.000000
TX Power	0.000000	RX Power	0.000000

558.552	0.000299866
558.630	0.000300610
558.709	0.000280018
558.787	0.000257355
558.865	0.000278889
558.943	0.000319981
559.021	0.000276795
559.099	0.000287712
559.177	0.000285175
559.255	0.000304909
559.334	0.000289543
559.412	0.000312973
559.490	0.000296543
559.568	0.000233128
559.646	0.000307842
559.724	0.000305946
559.802	0.000293614
559.880	0.000295426
559.959	0.000291447
560.037	0.000288670
560.115	0.000293255
560.193	0.000307854
560.271	0.000277470
560.349	0.000310932
560.427	0.000251625
560.505	0.000301312
560.584	0.000313049
560.662	0.000292778
560.740	0.000311989
560.818	0.000291325
560.896	0.000311222
560.974	0.000294823
561.052	0.000273827
561.130	0.000310414
561.209	0.000294983
561.287	0.000300919
561.365	0.000286255
561.443	0.000321343
561.521	0.000280216
561.599	0.000296189
561.677	0.000300892
561.755	0.000306938
561.834	0.000291332
561.912	0.000276924
561.990	0.000300484
562.068	0.000258968
562.146	0.000322411
562.224	0.000308781
562.302	0.000278721
562.380	0.000286034
562.459	0.000273789
562.537	0.000284329
562.615	0.000296105
562.693	0.000287140
562.771	0.000287632
562.849	0.000283047
562.927	0.000291096
563.005	0.000284512
563.084	0.000263897
563.162	0.000275627
563.240	0.000311173
563.318	0.000294129
563.396	0.000304241
563.474	0.000303158
563.552	0.000296253
563.630	0.000304199
563.709	0.000347893
563.787	0.000261677
563.865	0.000327194
563.943	0.000319576
564.021	0.000265289
564.099	0.000300972
564.177	0.000322643
564.255	0.000302815
564.334	0.000293381
564.412	0.000325504
564.490	0.000300053
564.568	0.000334450
564.646	0.000301258
564.724	0.000292053
564.802	0.000306580
564.880	0.000324894
564.959	0.000325016
565.037	0.000319607
565.115	0.000298706
565.193	0.000346924
565.271	0.000316734
565.349	0.000309189
565.427	0.000335655
565.505	0.000332562
565.584	0.000321747
565.662	0.000326805
565.740	0.000337689
565.818	0.000318478
565.896	0.000300175
565.974	0.000316998
566.052	0.000299118
566.130	0.000303620
566.209	0.000313561
566.287	0.000344196
566.365	0.000321133
566.443	0.000292511
566.521	0.000300526
566.599	0.000327210
566.677	0.000310913
566.755	0.000305164
566.834	0.000321789
566.912	0.000334049
566.990	0.000316147
567.068	0.000298611
567.146	0.000302555
567.224	0.000307713
567.302	0.000279785
567.380	0.000320767
567.459	0.000283234
567.537	0.000300255
567.615	0.000325485
567.693	0.000293316
567.771	0.000260109
567.849	0.000298630
567.927	0.000284233
568.005	0.000302666
568.084	0.000251675
568.162	0.000275780
568.240	0.000332600
568.318	0.000292420
568.396	0.000278816
568.474	0.000322964
568.552	0.000300980
568.630	0.000281681
568.709	0.000310246
568.787	0.000345413
568.865	0.000301594
568.943	0.000296669
569.021	0.000316391
569.099	0.000339222
569.177	0.000303192
569.255	0.000267697
569.334	0.000282162
569.412	0.000366257
569.490	0.000319927
569.568	0.000299641
569.646	0.000322521
569.724	0.000281792
569.802	0.000294842
569.880	0.000296806
569.959	0.000308579
570.037	0.000291294
570.115	0.000329727
570.193	0.000313973
570.271	0.000284397
570.349	0.000327068
570.427	0.000348583
570.505	0.000321755
570.584	0.000299072
570.662	0.000279610
570.740	0.000328053
570.818	0.000344864
570.896	0.000292053
570.974	0.000308193
571.052	0.000315743
571.130	0.000301884
571.209	0.000291428
571.287	0.000299294
571.365	0.000334858
571.443	0.000296780
571.521	0.000282864
571.599	0.000298714
571.677	0.000275780
571.755	0.000273804
571.834	0.000301048
571.912	0.000310391
571.990	0.000310387
572.068	0.000316406
572.146	0.000316944
572.224	0.000324322
572.302	0.000293038
572.380	0.000289131
572.459	0.000296494
572.537	0.000283550
572.615	0.000303578
572.693	0.000295120
572.771	0.000284538
572.849	0.000272350
572.927	0.000324829
573.005	0.000298729
573.084	0.000307762
573.162	0.000299893
573.240	0.000279495
573.318	0.000320294
573.396	0.000328922
573.474	0.000277950
573.552	0.000327931
573.630	0.000328602
573.709	0.000304958
573.787	0.000319340
573.865	0.000321461
573.943	0.000310944
574.021	0.000348629
574.099	0.000267822
574.177	0.000328129
574.255	0.000343231
574.334	0.000346222
574.412	0.000306626
574.490	0.000348404
574.568	0.000324120
574.646	0.000335999
574.724	0.000319161
574.802	0.000309994
574.880	0.000318054
574.959	0.000288963
575.037	0.000324539
575.115	0.000288563
575.193	0.000288502
575.271	0.000331062
575.349	0.000272419
575.427	0.000307797
575.505	0.000309097
575.584	0.000318508
575.662	0.000321167
575.740	0.000312863
575.818	0.000279724
575.896	0.000314907
575.974	0.000290375
576.052	0.000323177
576.130	0.000305466
576.209	0.000289688
576.287	0.000294388
576.365	0.000283283
576.443	0.000332245
576.521	0.000295349
576.599	0.000342598
576.677	0.000299782
576.755	0.000302345
576.834	0.000325447
576.912	0.000293480
576.990	0.000283280
577.068	0.000310799
577.146	0.000287510
577.224	0.000311470
577.302	0.000303978
577.380	0.000281346
577.459	0.000309315
577.537	0.000302830
577.615	0.000306027
577.693	0.000316544
577.771	0.000298016
577.849	0.000309963
577.927	0.000319557
578.005	0.000299458
578.084	0.000299755
578.162	0.000276104
578.240	0.000273651
578.318	0.000320385
578.396	0.000322502
578.474	0.000292664
578.552	0.000280182
578.630	0.000275906
578.709	0.000345238
578.787	0.000320328
578.865	0.000338570
578.943	0.000308697
579.021	0.000299343
579.099	0.000327992
579.177	0.000298966
579.255	0.000345810
579.334	0.000328869
579.412	0.000317852
579.490	0.000315174
579.568	0.000310314
579.646	0.000337563
579.724	0.000292530
579.802	0.000292885
579.880	0.000322712
579.959	0.000312393
580.037	0.000299950
580.115	0.000318447
580.193	0.000287975
580.271	0.000336323
580.349	0.000302715
580.427	0.000308212
580.505	0.000305447
580.584	0.000308937
580.662	0.000313866
580.740	0.000295544
580.818	0.000278988
580.896	0.000314671
580.974	0.000341042
581.052	0.000309555
581.130	0.000321442
581.209	0.000333656
581.287	0.000315476
581.365	0.000276283
581.443	0.000292507
581.521	0.000273628
581.599	0.000315933
581.677	0.000339657
581.755	0.000346356
581.834	0.000310116
581.912	0.000312122
581.990	0.000337563
582.068	0.000322922
582.146	0.000322121
582.224	0.000329334
582.302	0.000292320
582.380	0.000299359
582.459	0.000326573
582.537	0.000301880
582.615	0.000342037
582.693	0.000342407
582.771	0.000348225
582.849	0.000314945
582.927	0.000354927
583.005	0.000340927
583.084	0.000293595
583.162	0.000332615
583.240	0.000319039
583.318	0.000301468
583.396	0.000315651
583.474	0.000353340
583.552	0.000308136
583.630	0.000296436
583.709	0.000312802
583.787	0.000304497
583.865	0.000306053
583.943	0.000326477
584.021	0.000287270
584.099	0.000297039
584.177	0.000347485
584.255	0.000286228
584.334	0.000282734
584.412	0.000299317
584.490	0.000308540
584.568	0.000297264
584.646	0.000316960
584.724	0.000312485
584.802	0.000297398
584.880	0.000303990
584.959	0.000299637
585.037	0.000298180
585.115	0.000318417
585.193	0.000280880
585.271	0.000328159
585.349	0.000319950
585.427	0.000311478
585.505	0.000312687
585.584	0.000304520
585.662	0.000306568
585.740	0.000311173
585.818	0.000319019
585.896	0.000313473
585.974	0.000320885
586.052	0.000308193
586.130	0.000341717
586.209	0.000303547
586.287	0.000299771
586.365	0.000349758
586.443	0.000326988
586.521	0.000306286
586.599	0.000325909
586.677	0.000268437
586.755	0.000352360
586.834	0.000359772
586.912	0.000361031
586.990	0.000318772
587.068	0.000316261
587.146	0.000269573
587.224	0.000322949
587.302	0.000341458
587.380	0.000348465
587.459	0.000305329
587.537	0.000324848
587.615	0.000335671
587.693	0.000296200
587.771	0.000343659
587.849	0.000298546
587.927	0.000323033
588.005	0.000311882
588.084	0.000280167
588.162	0.000321064
588.240	0.000314030
588.318	0.000313854
588.396	0.000344994
588.474	0.000325413
588.552	0.000325840
588.630	0.000346668
588.709	0.000273979
588.787	0.000337864
588.865	0.000323139
588.943	0.000288857
589.021	0.000317665
589.099	0.000317825
589.177	0.000316204
589.255	0.000313145
589.334	0.000322899
589.412	0.000313278
589.490	0.000290447
589.568	0.000307640
589.646	0.000301678
589.724	0.000306851
589.802	0.000263989
589.880	0.000312287
589.959	0.000291412
590.037	0.000298187
590.115	0.000319912
590.193	0.000283089
590.271	0.000300011
590.349	0.000263386
590.427	0.000308457
590.505	0.000299877
590.584	0.000275814
590.662	0.000350632
590.740	0.000268654
590.818	0.000254986
590.896	0.000299809
590.974	0.000339539
591.052	0.000293312
591.130	0.000289005
591.209	0.000325157
591.287	0.000334278
591.365	0.000317806
591.443	0.000293575
591.521	0.000308067
591.599	0.000292927
591.677	0.000316540
591.755	0.000318947
591.834	0.000298313
591.912	0.000317532
591.990	0.000337025
592.068	0.000308346
592.146	0.000316208
592.224	0.000326374
592.302	0.000327702
592.380	0.000334229
592.459	0.000309532
592.537	0.000291386
592.615	0.000338337
592.693	0.000365029
592.771	0.000342804
592.849	0.000356030
592.927	0.000304314
593.005	0.000295250
593.084	0.000314919
593.162	0.000351422
593.240	0.000358002
593.318	0.000343296
593.396	0.000310322
593.474	0.000363690
593.552	0.000313805
593.630	0.000310024
593.709	0.000332619
593.787	0.000315537
593.865	0.000334019
593.943	0.000323975
594.021	0.000294754
594.099	0.000308617
594.177	0.000320904
594.255	0.000342518
594.334	0.000310455
594.412	0.000324875
594.490	0.000312847
594.568	0.000356182
594.646	0.000329724
594.724	0.000302776
594.802	0.000284176
594.880	0.000306229
594.959	0.000282425
595.037	0.000307255
595.115	0.000303116
595.193	0.000303532
595.271	0.000308064
595.349	0.000267594
595.427	0.000278710
595.505	0.000312473
595.584	0.000302555
595.662	0.000300419
595.740	0.000285252
595.818	0.000279423
595.896	0.000288532
595.974	0.000304947
596.052	0.000284184
596.130	0.000337185
596.209	0.000339466
596.287	0.000270695
596.365	0.000293915
596.443	0.000320702
596.521	0.000279942
596.599	0.000297321
596.677	0.000308666
596.755	0.000314900
596.834	0.000300663
596.912	0.000306381
596.990	0.000332420
597.068	0.000279171
597.146	0.000284203
597.224	0.000340298
597.302	0.000277542
597.380	0.000310314
597.459	0.000329819
597.537	0.000302574
597.615	0.000314823
597.693	0.000333145
597.771	0.000337952
597.849	0.000293099
597.927	0.000306420
598.005	0.000326870
598.084	0.000316700
598.162	0.000314697
598.240	0.000349415
598.318	0.000305226
598.396	0.000299767
598.474	0.000317898
598.552	0.000335320
598.630	0.000327709
598.709	0.000322899
598.787	0.000333073
598.865	0.000339283
598.943	0.000310864
599.021	0.000332497
599.099	0.000341061
599.177	0.000346222
599.255	0.000370876
599.334	0.000323330
599.412	0.000307484
599.490	0.000346131
599.568	0.000340347
599.646	0.000347931
599.724	0.000344883
599.802	0.000347542
599.880	0.000319573
599.959	0.000330044
600.037	0.000303631
600.115	0.000310276
600.193	0.000321747
600.271	0.000320221
600.349	0.000351315
600.427	0.000346947
600.505	0.000314415
600.584	0.000330383
600.662	0.000304863
600.740	0.000301945
600.818	0.000340710
600.896	0.000307316
600.974	0.000330364
601.052	0.000291863
601.130	0.000279915
601.209	0.000319622
601.287	0.000331215
601.365	0.000334500
601.443	0.000273018
601.521	0.000298782
601.599	0.000320820
601.677	0.000303543
601.755	0.000307606
601.834	0.000247776
601.912	0.000365933
601.990	0.000312668
602.068	0.000299996
602.146	0.000303616
602.224	0.000315331
602.302	0.000339756
602.380	0.000306641
602.459	0.000314289
602.537	0.000314366
602.615	0.000306595
602.693	0.000316902
602.771	0.000327503
602.849	0.000288498
602.927	0.000346436
603.005	0.000289818
603.084	0.000314823
603.162	0.000324803
603.240	0.000302475
603.318	0.000297905
603.396	0.000311367
603.474	0.000301350
603.552	0.000305206
603.630	0.000312603
603.709	0.000313400
603.787	0.000296238
603.865	0.000285324
603.943	0.000299786
604.021	0.000336151
604.099	0.000268036
604.177	0.000302277
604.255	0.000293278
604.334	0.000303669
604.412	0.000303585
604.490	0.000253895
604.568	0.000275414
604.646	0.000274185
604.724	0.000281178
604.802	0.000258145
604.880	0.000254505
604.959	0.000258686
605.037	0.000268635
605.115	0.000285191
605.193	0.000271809
605.271	0.000255341
605.349	0.000264794
605.427	0.000277908
605.505	0.000260533
605.584	0.000274731
605.662	0.000294823
605.740	0.000267986
605.818	0.000240341
605.896	0.000284599
605.974	0.000251980
606.052	0.000261768
606.130	0.000254616
606.209	0.000269707
606.287	0.000269344
606.365	0.000283188
606.443	0.000224529
606.521	0.000277268
606.599	0.000291466
606.677	0.000223690
606.755	0.000260155
606.834	0.000297630
606.912	0.000296131
606.990	0.000268967
607.068	0.000319195
607.146	0.000275025
607.224	0.000332493
607.302	0.000321701
607.380	0.000313828
607.459	0.000360401
607.537	0.000344128
607.615	0.000318394
607.693	0.000342056
607.771	0.000387394
607.849	0.000367062
607.927	0.000342030
608.005	0.000374249
608.084	0.000358894
608.162	0.000375824
608.240	0.000336315
608.318	0.000334191
608.396	0.000368935
608.474	0.000365849
608.552	0.000359406
608.630	0.000310677
608.709	0.000343170
608.787	0.000322376
608.865	0.000353527
608.943	0.000340527
609.021	0.000337387
609.099	0.000347942
609.177	0.000342770
609.255	0.000318360
609.334	0.000307102
609.412	0.000308029
609.490	0.000337559
609.568	0.000324284
609.646	0.000291382
609.724	0.000309834
609.802	0.000334179
609.880	0.000288159
609.959	0.000311066
610.037	0.000313660
610.115	0.000338642
610.193	0.000335747
610.271	0.000322453
610.349	0.000315411
610.427	0.000333130
610.505	0.000375405
610.584	0.000334221
610.662	0.000354817
610.740	0.000380837
610.818	0.000367455
610.896	0.000405880
610.974	0.000381321
611.052	0.000363789
611.130	0.000376103
611.209	0.000398926
611.287	0.000414040
611.365	0.000439118
611.443	0.000404087
611.521	0.000402954
611.599	0.000408154
611.677	0.000454228
611.755	0.000407513
611.834	0.000411755
611.912	0.000415730
611.990	0.000390579
612.068	0.000392037
612.146	0.000371723
612.224	0.000364720
612.302	0.000358185
612.380	0.000315670
612.459	0.000341595
612.537	0.000345608
612.615	0.000294426
612.693	0.000271000
612.771	0.000268360
612.849	0.000247605
612.927	0.000243893
613.005	0.000234539
613.084	0.000222035
613.162	0.000215656
613.240	0.000239716
613.318	0.000232746
613.396	0.000222946
613.474	0.000239613
613.552	0.000191464
613.630	0.000244602
613.709	0.000283348
613.787	0.000186363
613.865	0.000230374
613.943	0.000277290
614.021	0.000247311
614.099	0.000205418
614.177	0.000257542
614.255	0.000246205
614.334	0.000249584
614.412	0.000226692
614.490	0.000235634
614.568	0.000242455
614.646	0.000248505
614.724	0.000231941
614.802	0.000274151
614.880	0.000252365
614.959	0.000241520
615.037	0.000256352
615.115	0.000258442
615.193	0.000264965
615.271	0.000284268
615.349	0.000283844
615.427	0.000272076
615.505	0.000241184
615.584	0.000253494
615.662	0.000247303
615.740	0.000279247
615.818	0.000269905
615.896	0.000268635
615.974	0.000293343
616.052	0.000288155
616.130	0.000275391
616.209	0.000276783
616.287	0.000252781
616.365	0.000291432
616.443	0.000266583
616.521	0.000270081
616.599	0.000252281
616.677	0.000249661
616.755	0.000274117
616.834	0.000259701
616.912	0.000273976
616.990	0.000314716
617.068	0.000272656
617.146	0.000260487
617.224	0.000299805
617.302	0.000292862
617.380	0.000319466
617.459	0.000258961
617.537	0.000278938
617.615	0.000317734
617.693	0.000328030
617.771	0.000324551
617.849	0.000309967
617.927	0.000296543
618.005	0.000299183
618.084	0.000305737
618.162	0.000299305
618.240	0.000283383
618.318	0.000322605
618.396	0.000314362
618.474	0.000289440
618.552	0.000302818
618.630	0.000316719
618.709	0.000308746
618.787	0.000307232
618.865	0.000297856
618.943	0.000325192
619.021	0.000308525
619.099	0.000299099
619.177	0.000317753
619.255	0.000330002
619.334	0.000339123
619.412	0.000311062
619.490	0.000287773
619.568	0.000291340
619.646	0.000328663
619.724	0.000333874
619.802	0.000320339
619.880	0.000304611
619.959	0.000329502
620.037	0.000335709
620.115	0.000308651
620.193	0.000300465
620.271	0.000326420
620.349	0.000324692
620.427	0.000344811
620.505	0.000324330
620.584	0.000354790
620.662	0.000335991
620.740	0.000326130
620.818	0.000325020
620.896	0.000331352
620.974	0.000325821
621.052	0.000343910
621.130	0.000318215
621.209	0.000323052
621.287	0.000324219
621.365	0.000374172
621.443	0.000364330
621.521	0.000359043
621.599	0.000344769
621.677	0.000321415
621.755	0.000289520
621.834	0.000315628
621.912	0.000306255
621.990	0.000303425
622.068	0.000305153
622.146	0.000288986
622.224	0.000320286
622.302	0.000353977
622.380	0.000286900
622.459	0.000323471
622.537	0.000310055
622.615	0.000330677
622.693	0.000309635
622.771	0.000289127
622.849	0.000346295
622.927	0.000263779
623.005	0.000296467
623.084	0.000354675
623.162	0.000314655
623.240	0.000293556
623.318	0.000336315
623.396	0.000327187
623.474	0.000281731
623.552	0.000294792
623.630	0.000355801
623.709	0.000270451
623.787	0.000269558
623.865	0.000285534
623.943	0.000278717
624.021	0.000281052
624.099	0.000276646
624.177	0.000290936
624.255	0.000242958
624.334	0.000249809
624.412	0.000279915
624.490	0.000253784
624.568	0.000260101
624.646	0.000279175
624.724	0.000292469
624.802	0.000272141
624.880	0.000275219
624.959	0.000274399
625.037	0.000301350
625.115	0.000273033
625.193	0.000273960
625.271	0.000310154
625.349	0.000300617
625.427	0.000269463
625.505	0.000290852
625.584	0.000314308
625.662	0.000324829
625.740	0.000317394
625.818	0.000298599
625.896	0.000259998
625.974	0.000288853
626.052	0.000296982
626.130	0.000303436
626.209	0.000354286
626.287	0.000295857
626.365	0.000285442
626.443	0.000293022
626.521	0.000265873
626.599	0.000291035
626.677	0.000298660
626.755	0.000309273
626.834	0.000296765
626.912	0.000284786
626.990	0.000302002
627.068	0.000299191
627.146	0.000260361
627.224	0.000241085
627.302	0.000286987
627.380	0.000287975
627.459	0.000305287
627.537	0.000290795
627.615	0.000288975
627.693	0.000309693
627.771	0.000289971
627.849	0.000303154
627.927	0.000296696
628.005	0.000317486
628.084	0.000293900
628.162	0.000319092
628.240	0.000332478
628.318	0.000324131
628.396	0.000291546
628.474	0.000296208
628.552	0.000314301
628.630	0.000330990
628.709	0.000310539
628.787	0.000344185
628.865	0.000351742
628.943	0.000358395
629.021	0.000329033
629.099	0.000331635
629.177	0.000335228
629.255	0.000323738
629.334	0.000354183
629.412	0.000357208
629.490	0.000362644
629.568	0.000368492
629.646	0.000347477
629.724	0.000365254
629.802	0.000352753
629.880	0.000355526
629.959	0.000359673
630.037	0.000354225
630.115	0.000396835
630.193	0.000385586
630.271	0.000350033
630.349	0.000390572
630.427	0.000412773
630.505	0.000404286
630.584	0.000441864
630.662	0.000431660
630.740	0.000436699
630.818	0.000430420
630.896	0.000462937
630.974	0.000463017
631.052	0.000488259
631.130	0.000510513
631.209	0.000516140
631.287	0.000536022
631.365	0.000503853
631.443	0.000530445
631.521	0.000567101
631.599	0.000601624
631.677	0.000623749
631.755	0.000608074
631.834	0.000650787
631.912	0.000653828
631.990	0.000703926
632.068	0.000738259
632.146	0.000736893
632.224	0.000782562
632.302	0.000807659
632.380	0.000878254
632.459	0.000858067
632.537	0.000904881
632.615	0.000964981
632.693	0.000979271
632.771	0.000973015
632.849	0.000975556
632.927	0.000921608
633.005	0.000842327
633.084	0.000726833
633.162	0.000471821
633.240	0.000101524
633.318	-0.000492290
633.396	-0.00116370
633.474	-0.00201703
633.552	-0.00281076
633.630	-0.00347334
633.709	-0.00394058
633.787	-0.00406422
633.865	-0.00389699
633.943	-0.00348299
634.021	-0.00280487
634.099	-0.00218134
634.177	-0.00149360
634.255	-0.000839500
634.334	-0.000297184
634.412	0.000216377
634.490	0.000608475
634.568	0.000962788
634.646	0.00115227
634.724	0.00133316
634.802	0.00139559
634.880	0.00138387
634.959	0.00130722
635.037	0.00122030
635.115	0.00111610
635.193	0.00103597
635.271	0.000917648
635.349	0.000853928
635.427	0.000789890
635.505	0.000729248
635.584	0.000665802
635.662	0.000568077
635.740	0.000537811
635.818	0.000464924
635.896	0.000459431
635.974	0.000409943
636.052	0.000483479
636.130	0.000479443
636.209	0.000462013
636.287	0.000489803
636.365	0.000506169
636.443	0.000454125
636.521	0.000512394
636.599	0.000524799
636.677	0.000439449
636.755	0.000448052
636.834	0.000476998
636.912	0.000429379
636.990	0.000431130
637.068	0.000410980
637.146	0.000473438
637.224	0.000408280
637.302	0.000450138
637.380	0.000462505
637.459	0.000419129
637.537	0.000398243
637.615	0.000401806
637.693	0.000437180
637.771	0.000449352
637.849	0.000419346
637.927	0.000469910
638.005	0.000500305
638.084	0.000432537
638.162	0.000474899
638.240	0.000451912
638.318	0.000443840
638.396	0.000467682
638.474	0.000475369
638.552	0.000497887
638.630	0.000451222
638.709	0.000487694
638.787	0.000508640
638.865	0.000541813
638.943	0.000539059
639.021	0.000535618
639.099	0.000550545
639.177	0.000555267
639.255	0.000548500
639.334	0.000509236
639.412	0.000474594
639.490	0.000452881
639.568	0.000456738
639.646	0.000450482
639.724	0.000427105
639.802	0.000430931
639.880	0.000424275
639.959	0.000386818
640.037	0.000424324
640.115	0.000433785
640.193	0.000445774
640.271	0.000463345
640.349	0.000461579
640.427	0.000459885
640.505	0.000437699
640.584	0.000404366
640.662	0.000421642
640.740	0.000464989
640.818	0.000459076
640.896	0.000433197
640.974	0.000415920
641.052	0.000364880
641.130	0.000388893
641.209	0.000405514
641.287	0.000371807
641.365	0.000374699
641.443	0.000318260
641.521	0.000342213
641.599	0.000335072
641.677	0.000332928
641.755	0.000297920
641.834	0.000291817
641.912	0.000300148
641.990	0.000280613
642.068	0.000290630
642.146	0.000259834
642.224	0.000282387
642.302	0.000279606
642.380	0.000268963
642.459	0.000260151
642.537	0.000254009
642.615	0.000229485
642.693	0.000265141
642.771	0.000270607
642.849	0.000262852
642.927	0.000274975
643.005	0.000271755
643.084	0.000263893
643.162	0.000246578
643.240	0.000212433
643.318	0.000204167
643.396	0.000168507
643.474	0.000188358
643.552	0.000136048
643.630	0.000150559
643.709	0.000202789
643.787	0.000163773
643.865	0.000193932
643.943	0.000202713
644.021	0.000169598
644.099	0.000215740
644.177	0.000228069
644.255	0.000272411
644.334	0.000231205
644.412	0.000223732
644.490	0.000255253
644.568	0.000251991
644.646	0.000239651
644.724	0.000270558
644.802	0.000284027
644.880	0.000290074
644.959	0.000258347
645.037	0.000266030
645.115	0.000237736
645.193	0.000212982
645.271	0.000203270
645.349	0.000224396
645.427	0.000220650
645.505	0.000239231
645.584	0.000261364
645.662	0.000251599
645.740	0.000325352
645.818	0.000304897
645.896	0.000275597
645.974	0.000283226
646.052	0.000254753
646.130	0.000264427
646.209	0.000276413
646.287	0.000272293
646.365	0.000283795
646.443	0.000285469
646.521	0.000295567
646.599	0.000340435
646.677	0.000300953
646.755	0.000284950
646.834	0.000299317
646.912	0.000249680
646.990	0.000299305
647.068	0.000317341
647.146	0.000275635
647.224	0.000257923
647.302	0.000268147
647.380	0.000339966
647.459	0.000279919
647.537	0.000306252
647.615	0.000284409
647.693	0.000288796
647.771	0.000258915
647.849	0.000271210
647.927	0.000296787
648.005	0.000284043
648.084	0.000336502
648.162	0.000320431
648.240	0.000342102
648.318	0.000345036
648.396	0.000349945
648.474	0.000346214
648.552	0.000354069
648.630	0.000306126
648.709	0.000262520
648.787	0.000279579
648.865	0.000281357
648.943	0.000256306
649.021	0.000266949
649.099	0.000279713
649.177	0.000318546
649.255	0.000341240
649.334	0.000299160
649.412	0.000281712
649.490	0.000314297
649.568	0.000282227
649.646	0.000286774
649.724	0.000243385
649.802	0.000330628
649.880	0.000357075
649.959	0.000383576
650.037	0.000334099
650.115	0.000320328
650.193	0.000350300
650.271	0.000298222
650.349	0.000310337
650.427	0.000296742
650.505	0.000270222
650.584	0.000267754
650.662	0.000243218
650.740	0.000243935
650.818	0.000263886
650.896	0.000324959
650.974	0.000289681
651.052	0.000266594
651.130	0.000299996
651.209	0.000308006
651.287	0.000285732
651.365	0.000289032
651.443	0.000284115
651.521	0.000267838
651.599	0.000311958
651.677	0.000317497
651.755	0.000341717
651.834	0.000338654
651.912	0.000301693
651.990	0.000338925
652.068	0.000336464
652.146	0.000318409
652.224	0.000295200
652.302	0.000255596
652.380	0.000291943
652.459	0.000326859
652.537	0.000262955
652.615	0.000275139
652.693	0.000300503
652.771	0.000299961
652.849	0.000282398
652.927	0.000258797
653.005	0.000281246
653.084	0.000275601
653.162	0.000303639
653.240	0.000292118
653.318	0.000283089
653.396	0.000330113
653.474	0.000317921
653.552	0.000332665
653.630	0.000312721
653.709	0.000340988
653.787	0.000321228
653.865	0.000282726
653.943	0.000313885
654.021	0.000336163
654.099	0.000254196
654.177	0.000240830
654.255	0.000270432
654.334	0.000230187
654.412	0.000283833
654.490	0.000263657
654.568	0.000262062
654.646	0.000257099
654.724	0.000238537
654.802	0.000288597
654.880	0.000248669
654.959	0.000250889
655.037	0.000239361
655.115	0.000294476
655.193	0.000272732
655.271	0.000282204
655.349	0.000271492
655.427	0.000263058
655.505	0.000299912
655.584	0.000272419
655.662	0.000261192
655.740	0.000262692
655.818	0.000254124
655.896	0.000256664
655.974	0.000233921
656.052	0.000228005
656.130	0.000209118
656.209	0.000219792
656.287	0.000225956
656.365	0.000248814
656.443	0.000230496
656.521	0.000224785
656.599	0.000212124
656.677	0.000238899
656.755	0.000235443
656.834	0.000214440
656.912	0.000239636
656.990	0.000214066
657.068	0.000200867
657.146	0.000217621
657.224	0.000235974
657.302	0.000228909
657.380	0.000257675
657.459	0.000258778
657.537	0.000252133
657.615	0.000247109
657.693	0.000266239
657.771	0.000262890
657.849	0.000246182
657.927	0.000258564
658.005	0.000256180
658.084	0.000250923
658.162	0.000270748
658.240	0.000283615
658.318	0.000310806
658.396	0.000295208
658.474	0.000273998
658.552	0.000290421
658.630	0.000325848
658.709	0.000338791
658.787	0.000334030
658.865	0.000341759
658.943	0.000306000
659.021	0.000328308
659.099	0.000348686
659.177	0.000326176
659.255	0.000326927
659.334	0.000349281
659.412	0.000333542
659.490	0.000299847
659.568	0.000298737
659.646	0.000306961
659.724	0.000292233
659.802	0.000372082
659.880	0.000342781
659.959	0.000291142
660.037	0.000304257
660.115	0.000324417
660.193	0.000335117
660.271	0.000346974
660.349	0.000333756
660.427	0.000387291
660.505	0.000352276
660.584	0.000343369
660.662	0.000291538
660.740	0.000321446
660.818	0.000343243
660.896	0.000345223
660.974	0.000348622
661.052	0.000369892
661.130	0.000291004
661.209	0.000302807
661.287	0.000340561
661.365	0.000311196
661.443	0.000261730
661.521	0.000267597
661.599	0.000272007
661.677	0.000261788
661.755	0.000275513
661.834	0.000296261
661.912	0.000284813
661.990	0.000304882
662.068	0.000286602
662.146	0.000302918
662.224	0.000304199
662.302	0.000290192
662.380	0.000320572
662.459	0.000303852
662.537	0.000267056
662.615	0.000285774
662.693	0.000326912
662.771	0.000282005
662.849	0.000290268
662.927	0.000345844
663.005	0.000300923
663.084	0.000294003
663.162	0.000301266
663.240	0.000248905
663.318	0.000297810
663.396	0.000256615
663.474	0.000239651
663.552	0.000268215
663.630	0.000233662
663.709	0.000266960
663.787	0.000256062
663.865	0.000256935
663.943	0.000290016
664.021	0.000302654
664.099	0.000267208
664.177	0.000297135
664.255	0.000250157
664.334	0.000316860
664.412	0.000304588
664.490	0.000272930
664.568	0.000285576
664.646	0.000255371
664.724	0.000266678
664.802	0.000292992
664.880	0.000265461
664.959	0.000236527
665.037	0.000206055
665.115	0.000216442
665.193	0.000261604
665.271	0.000262692
665.349	0.000248795
665.427	0.000259163
665.505	0.000282707
665.584	0.000316612
665.662	0.000298920
665.740	0.000286041
665.818	0.000258930
665.896	0.000317581
665.974	0.000276154
666.052	0.000254776
666.130	0.000331463
666.209	0.000334866
666.287	0.000325878
666.365	0.000278744
666.443	0.000349922
666.521	0.000309464
666.599	0.000287708
666.677	0.000294789
666.755	0.000315140
666.834	0.000285168
666.912	0.000306381
666.990	0.000347252
667.068	0.000279949
667.146	0.000319615
667.224	0.000317356
667.302	0.000332077
667.380	0.000359081
667.459	0.000312512
667.537	0.000337753
667.615	0.000347950
667.693	0.000344250
667.771	0.000363255
667.849	0.000285866
667.927	0.000335407
668.005	0.000384770
668.084	0.000335846
668.162	0.000340332
668.240	0.000337589
668.318	0.000327236
668.396	0.000328465
668.474	0.000319702
668.552	0.000300285
668.630	0.000285813
668.709	0.000247105
668.787	0.000283386
668.865	0.000291760
668.943	0.000249142
669.021	0.000228733
669.099	0.000253658
669.177	0.000258148
669.255	0.000261181
669.334	0.000215161
669.412	0.000248226
669.490	0.000269692
669.568	0.000238754
669.646	0.000261051
669.724	0.000239121
669.802	0.000272446
669.880	0.000257260
669.959	0.000244896
670.037	0.000245445
670.115	0.000213120
670.193	0.000222798
670.271	0.000232330
670.349	0.000222660
670.427	0.000209164
670.505	0.000195938
670.584	0.000201000
670.662	0.000206883
670.740	0.000198078
670.818	0.000221523
670.896	0.000260231
670.974	0.000244007
671.052	0.000226364
671.130	0.000271729
671.209	0.000256935
671.287	0.000272171
671.365	0.000231911
671.443	0.000264977
671.521	0.000241394
671.599	0.000242462
671.677	0.000253563
671.755	0.000247864
671.834	0.000252453
671.912	0.000246353
671.990	0.000246502
672.068	0.000229221
672.146	0.000214539
672.224	0.000227162
672.302	0.000272621
672.380	0.000241169
672.459	0.000199494
672.537	0.000265762
672.615	0.000247620
672.693	0.000254646
672.771	0.000250458
672.849	0.000259052
672.927	0.000227192
673.005	0.000250809
673.084	0.000297714
673.162	0.000255257
673.240	0.000293476
673.318	0.000283253
673.396	0.000300915
673.474	0.000273575
673.552	0.000300030
673.630	0.000252594
673.709	0.000315373
673.787	0.000253304
673.865	0.000294132
673.943	0.000283505
674.021	0.000272656
674.099	0.000255779
674.177	0.000267441
674.255	0.000294747
674.334	0.000251469
674.412	0.000283798
674.490	0.000248253
674.568	0.000271004
674.646	0.000282150
674.724	0.000295845
674.802	0.000323067
674.880	0.000282501
674.959	0.000309422
675.037	0.000326355
675.115	0.000290638
675.193	0.000297810
675.271	0.000290306
675.349	0.000308994
675.427	0.000282353
675.505	0.000312977
675.584	0.000265175
675.662	0.000298885
675.740	0.000273712
675.818	0.000286518
675.896	0.000272171
675.974	0.000320809
676.052	0.000313397
676.130	0.000270378
676.209	0.000286560
676.287	0.000295506
676.365	0.000288654
676.443	0.000290478
676.521	0.000309303
676.599	0.000334133
676.677	0.000321255
676.755	0.000266987
676.834	0.000307076
676.912	0.000273659
676.990	0.000253239
677.068	0.000250725
677.146	0.000244839
677.224	0.000270252
677.302	0.000284477
677.380	0.000260864
677.459	0.000285423
677.537	0.000280056
677.615	0.000266636
677.693	0.000270634
677.771	0.000278599
677.849	0.000251717
677.927	0.000250302
678.005	0.000217755
678.084	0.000240482
678.162	0.000254078
678.240	0.000274288
678.318	0.000287857
678.396	0.000271168
678.474	0.000308170
678.552	0.000253975
678.630	0.000307232
678.709	0.000263497
678.787	0.000273960
678.865	0.000288922
678.943	0.000285496
679.021	0.000252140
679.099	0.000267483
679.177	0.000273419
679.255	0.000278462
679.334	0.000255459
679.412	0.000233421
679.490	0.000261479
679.568	0.000198624
679.646	0.000242825
679.724	0.000236393
679.802	0.000233261
679.880	0.000240700
679.959	0.000271610
680.037	0.000270054
680.115	0.000241997
680.193	0.000265144
680.271	0.000278244
680.349	0.000286602
680.427	0.000282070
680.505	0.000247803
680.584	0.000248840
680.662	0.000240559
680.740	0.000223927
680.818	0.000238224
680.896	0.000237160
680.974	0.000207493
681.052	0.000233498
681.130	0.000185593
681.209	0.000202431
681.287	0.000244450
681.365	0.000187458
681.443	0.000228562
681.521	0.000200325
681.599	0.000209316
681.677	0.000196156
681.755	0.000184837
681.834	0.000177670
681.912	0.000166596
681.990	0.000189984
682.068	0.000200459
682.146	0.000166313
682.224	0.000169941
682.302	0.000137665
682.380	0.000103077
682.459	0.000113907
682.537	0.0000994264
682.615	0.000111698
682.693	0.000113735
682.771	0.0000769655
682.849	0.0000464288
682.927	0.0000799829
683.005	0.0000627519
683.084	0.0000364458
683.162	0.0000858423
683.240	0.0000195962
683.318	0.00000210204
683.396	0.0000305292
683.474	0.0000172845
683.552	0.0000169145
683.630	-0.0000160368
683.709	0.00000563827
683.787	0.0000340120
683.865	-0.00000296006
683.943	-0.0000310400
684.021	0.00000185409
684.099	-0.0000125502
684.177	-0.00000792298
684.255	-0.0000177992
684.334	-0.0000387915
684.412	-0.00000701127
684.490	-0.0000115279
684.568	-0.0000778426
684.646	-0.0000605582
684.724	-0.0000238036
684.802	-0.0000186156
684.880	-0.0000301932
684.959	-0.0000290869
685.037	-0.0000363539
685.115	0.00000271621
685.193	0.0000129587
685.271	-0.00000456223
685.349	0.0000766527
685.427	0.0000896112
685.505	0.0000889741
685.584	0.0000753404
685.662	0.000100441
685.740	0.0000927927
685.818	0.000168209
685.896	0.000129749
685.974	0.000124760
686.052	0.000138840
686.130	0.000104725
686.209	0.000115811
686.287	0.000155281
686.365	0.000143292
686.443	0.000133785
686.521	0.000114746
686.599	0.000157932
686.677	0.000129936
686.755	0.000135475
686.834	0.000132137
686.912	0.000121441
686.990	0.000149170
687.068	0.000129776
687.146	0.000154076
687.224	0.000150864
687.302	0.000140339
687.380	0.000168121
687.459	0.000198395
687.537	0.000190697
687.615	0.000173268
687.693	0.000221062
687.771	0.000202709
687.849	0.000233406
687.927	0.000191521
688.005	0.000209942
688.084	0.000215092
688.162	0.000231159
688.240	0.000193463
688.318	0.000186566
688.396	0.000221123
688.474	0.000168720
688.552	0.000236950
688.630	0.000181278
688.709	0.000155720
688.787	0.000197216
688.865	0.000159622
688.943	0.000191769
689.021	0.000160896
689.099	0.000214871
689.177	0.000213135
689.255	0.000228150
689.334	0.000202019
689.412	0.000251354
689.490	0.000265522
689.568	0.000229962
689.646	0.000222759
689.724	0.000256340
689.802	0.000261898
689.880	0.000262600
689.959	0.000223828
690.037	0.000229435
690.115	0.000255509
690.193	0.000249176
690.271	0.000247200
690.349	0.000262154
690.427	0.000284386
690.505	0.000260117
690.584	0.000308636
690.662	0.000282650
690.740	0.000282135
690.818	0.000280266
690.896	0.000312573
690.974	0.000307095
691.052	0.000315918
691.130	0.000294022
691.209	0.000322765
691.287	0.000357376
691.365	0.000306133
691.443	0.000269100
691.521	0.000331028
691.599	0.000334194
691.677	0.000297962
691.755	0.000326935
691.834	0.000286945
691.912	0.000316834
691.990	0.000288113
692.068	0.000261585
692.146	0.000302761
692.224	0.000285492
692.302	0.000267605
692.380	0.000257820
692.459	0.000251198
692.537	0.000230427
692.615	0.000222328
692.693	0.000241512
692.771	0.000220291
692.849	0.000208725
692.927	0.000200798
693.005	0.000171475
693.084	0.000178112
693.162	0.000191193
693.240	0.000104572
693.318	0.000132591
693.396	0.000100929
693.474	0.0000853311
693.552	0.0000621377
693.630	0.0000729753
693.709	0.0000577737
693.787	0.0000268213
693.865	-0.00000251755
693.943	-0.000000461432
694.021	-0.00000769028
694.099	-0.0000791739
694.177	-0.0000665816
694.255	-0.0000567931
694.334	-0.000116955
694.412	-0.000140552
694.490	-0.0000796698
694.568	-0.0000900534
694.646	-0.000133766
694.724	-0.0000997122
694.802	-0.000162960
694.880	-0.000186817
694.959	-0.000174293
695.037	-0.000220821
695.115	-0.000232155
695.193	-0.000220203
695.271	-0.000213199
695.349	-0.000269482
695.427	-0.000244915
695.505	-0.000299656
695.584	-0.000280044
695.662	-0.000256927
695.740	-0.000313930
695.818	-0.000299167
695.896	-0.000315712
695.974	-0.000286686
696.052	-0.000338695
696.130	-0.000313480
696.209	-0.000305057
696.287	-0.000355800
696.365	-0.000332439
696.443	-0.000307258
696.521	-0.000315224
696.599	-0.000357647
696.677	-0.000330051
696.755	-0.000364815
696.834	-0.000374565
696.912	-0.000401275
696.990	-0.000402084
697.068	-0.000387176
697.146	-0.000426800
697.224	-0.000487778
697.302	-0.000420242
697.380	-0.000478886
697.459	-0.000465721
697.537	-0.000456295
697.615	-0.000495815
697.693	-0.000472710
697.771	-0.000465752
697.849	-0.000508976
697.927	-0.000479481
698.005	-0.000533928
698.084	-0.000541485
698.162	-0.000488758
698.240	-0.000529846
698.318	-0.000493812
698.396	-0.000495815
698.474	-0.000495117
698.552	-0.000511928
698.630	-0.000531841
698.709	-0.000522495
698.787	-0.000527599
698.865	-0.000580421
698.943	-0.000553093
699.021	-0.000574497
699.099	-0.000563949
699.177	-0.000594845
699.255	-0.000614796
699.334	-0.000693271
699.412	-0.000651546
699.490	-0.000655807
699.568	-0.000666645
699.646	-0.000667324
699.724	-0.000669968
699.802	-0.000602508
699.880	-0.000601391
699.959	-0.000611671
700.037	-0.000569378
700.115	-0.000551304
700.193	-0.000501434
700.271	-0.000487244
700.349	-0.000519802
700.427	-0.000472015
700.505	-0.000504757
700.584	-0.000539070
700.662	-0.000648498
700.740	-0.000768158
700.818	-0.000975174
700.896	-0.00131302
700.974	-0.00170557
701.052	-0.00218465
701.130	-0.00262846
701.209	-0.00304911
701.287	-0.00331277
701.365	-0.00345770
701.443	-0.00337265
701.521	-0.00320444
701.599	-0.00294477
701.677	-0.00264983
701.755	-0.00229612
701.834	-0.00195441
701.912	-0.00164671
701.990	-0.00137575
702.068	-0.00116824
702.146	-0.000962234
702.224	-0.000820366
702.302	-0.000763565
702.380	-0.000669353
702.459	-0.000692722
702.537	-0.000760799
702.615	-0.000800094
702.693	-0.000797291
702.771	-0.000876091
702.849	-0.000909908
702.927	-0.000970993
703.005	-0.000992229
703.084	-0.00101278
703.162	-0.00104514
703.240	-0.00104772
703.318	-0.00100074
703.396	-0.00101006
703.474	-0.00102936
703.552	-0.000978065
703.630	-0.000950760
703.709	-0.000932346
703.787	-0.000851547
703.865	-0.000867809
703.943	-0.000792217
704.021	-0.000733871
704.099	-0.000744224
704.177	-0.000621876
704.255	-0.000610199
704.334	-0.000620197
704.412	-0.000549408
704.490	-0.000466293
704.568	-0.000431145
704.646	-0.000423450
704.724	-0.000351669
704.802	-0.000288437
704.880	-0.000210426
704.959	-0.000179718
705.037	-0.000136173
705.115	-0.0000527533
705.193	0.0000117914
705.271	0.000123261
705.349	0.000195812
705.427	0.000293793
705.505	0.000422245
705.584	0.000521095
705.662	0.000652485
705.740	0.000728741
705.818	0.000848488
705.896	0.000991055
705.974	0.00111552
706.052	0.00122931
706.130	0.00139206
706.209	0.00157913
706.287	0.00175579
706.365	0.00191554
706.443	0.00211851
706.521	0.00234698
706.599	0.00254611
706.677	0.00283812
706.755	0.00305223
706.834	0.00329308
706.912	0.00359901
706.990	0.00381037
707.068	0.00412805
707.146	0.00443129
707.224	0.00475358
707.302	0.00511036
707.380	0.00547387
707.459	0.00588242
707.537	0.00633296
707.615	0.00678276
707.693	0.00728442
707.771	0.00776535
707.849	0.00832029
707.927	0.00884888
708.005	0.00951077
708.084	0.0101362
708.162	0.0107838
708.240	0.0114973
708.318	0.0122126
708.396	0.0129647
708.474	0.0137969
708.552	0.0146814
708.630	0.0155570
708.709	0.0164383
708.787	0.0173991
708.865	0.0184382
708.943	0.0195570
709.021	0.0206412
709.099	0.0218810
709.177	0.0231495
709.255	0.0245587
709.334	0.0259729
709.412	0.0274958
709.490	0.0291230
709.568	0.0308390
709.646	0.0326110
709.724	0.0345264
709.802	0.0364554
709.880	0.0384802
709.959	0.0406283
710.037	0.0428197
710.115	0.0450635
710.193	0.0473517
710.271	0.0497755
710.349	0.0522077
710.427	0.0546658
710.505	0.0571825
710.584	0.0597497
710.662	0.0622856
710.740	0.0649472
710.818	0.0675675
710.896	0.0701379
710.974	0.0727792
711.052	0.0754048
711.130	0.0779977
711.209	0.0805066
711.287	0.0828406
711.365	0.0851007
711.443	0.0871350
711.521	0.0889291
711.599	0.0905683
711.677	0.0920916
711.755	0.0935191
711.834	0.0947977
711.912	0.0956662
711.990	0.0959061
712.068	0.0950577
712.146	0.0924510
712.224	0.0872590
712.302	0.0780048
712.380	0.0621443
712.459	0.0352327
712.537	-0.00915211
712.615	-0.0775682
712.693	-0.173695
712.771	-0.294878
712.849	-0.429647
712.927	-0.560242
713.005	-0.665745
713.084	-0.729064
713.162	-0.741191
713.240	-0.704418
713.318	-0.630741
713.396	-0.536815
713.474	-0.437241
713.552	-0.341348
713.630	-0.252759
713.709	-0.171744
713.787	-0.0976100
713.865	-0.0301462
713.943	0.0298169
714.021	0.0800241
714.099	0.118372
714.177	0.143475
714.255	0.155930
714.334	0.158154
714.412	0.153514
714.490	0.145376
714.568	0.136368
714.646	0.127611
714.724	0.118923
714.802	0.109329
714.880	0.0980139
714.959	0.0850969
715.037	0.0718804
715.115	0.0599550
715.193	0.0507596
715.271	0.0449707
715.349	0.0421193
715.427	0.0410348
715.505	0.0407916
715.584	0.0405421
715.662	0.0400815
715.740	0.0393719
715.818	0.0383176
715.896	0.0367097
715.974	0.0346304
716.052	0.0322128
716.130	0.0298180
716.209	0.0279631
716.287	0.0272036
716.365	0.0277065
716.443	0.0289168
716.521	0.0297848
716.599	0.0294063
716.677	0.0273304
716.755	0.0240248
716.834	0.0206023
716.912	0.0184701
716.990	0.0186882
717.068	0.0212886
717.146	0.0253742
717.224	0.0295988
717.302	0.0326472
717.380	0.0340921
717.459	0.0340661
717.537	0.0333993
717.615	0.0329165
717.693	0.0330395
717.771	0.0339536
717.849	0.0352649
717.927	0.0366654
718.005	0.0381987
718.084	0.0399585
718.162	0.0418585
718.240	0.0438727
718.318	0.0455387
718.396	0.0465471
718.474	0.0464117
718.552	0.0448111
718.630	0.0418779
718.709	0.0381473
718.787	0.0341840
718.865	0.0303071
718.943	0.0269153
719.021	0.0243560
719.099	0.0230684
719.177	0.0231345
719.255	0.0242933
719.334	0.0262218
719.412	0.0284586
719.490	0.0303856
719.568	0.0316496
719.646	0.0320311
719.724	0.0317264
719.802	0.0310027
719.880	0.0302136
719.959	0.0295798
720.037	0.0289303
720.115	0.0281079
720.193	0.0269270
720.271	0.0253787
720.349	0.0234947
720.427	0.0213983
720.505	0.0193497
720.584	0.0177060
720.662	0.0165557
720.740	0.0156893
720.818	0.0147298
720.896	0.0134491
720.974	0.0118974
721.052	0.0101754
721.130	0.00844130
721.209	0.00683371
721.287	0.00536041
721.365	0.00385805
721.443	0.00210209
721.521	-0.0000822829
721.599	-0.00252909
721.677	-0.00484150
721.755	-0.00656920
721.834	-0.00747541
721.912	-0.00749520
721.990	-0.00691338
722.068	-0.00613844
722.146	-0.00558622
722.224	-0.00585719
722.302	-0.00712746
722.380	-0.00933716
722.459	-0.0121880
722.537	-0.0153278
722.615	-0.0182702
722.693	-0.0206998
722.771	-0.0224248
722.849	-0.0232680
722.927	-0.0235254
723.005	-0.0233087
723.084	-0.0228927
723.162	-0.0223810
723.240	-0.0218638
723.318	-0.0213339
723.396	-0.0207372
723.474	-0.0198702
723.552	-0.0186566
723.630	-0.0171892
723.709	-0.0156251
723.787	-0.0139897
723.865	-0.0125271
723.943	-0.0112928
724.021	-0.0104447
724.099	-0.00988591
724.177	-0.00968472
724.255	-0.00988787
724.334	-0.0105409
724.412	-0.0117379
724.490	-0.0131768
724.568	-0.0146149
724.646	-0.0155078
724.724	-0.0155044
724.802	-0.0144044
724.880	-0.0122356
724.959	-0.00956493
725.037	-0.00718515
725.115	-0.00558166
725.193	-0.00515913
725.271	-0.00560027
725.349	-0.00640042
725.427	-0.00680228
725.505	-0.00623738
725.584	-0.00450248
725.662	-0.00210462
725.740	0.000430752
725.818	0.00207131
725.896	0.00257069
725.974	0.00192687
726.052	0.000501682
726.130	-0.00129174
726.209	-0.00286439
726.287	-0.00400481
726.365	-0.00478237
726.443	-0.00512125
726.521	-0.00518259
726.599	-0.00485389
726.677	-0.00433351
726.755	-0.00367230
726.834	-0.00333609
726.912	-0.00353679
726.990	-0.00423809
727.068	-0.00525264
727.146	-0.00586316
727.224	-0.00549716
727.302	-0.00380587
727.380	-0.00111825
727.459	0.00181792
727.537	0.00434216
727.615	0.00571335
727.693	0.00575675
727.771	0.00476323
727.849	0.00305292
727.927	0.00107315
728.005	-0.00104267
728.084	-0.00308454
728.162	-0.00496240
728.240	-0.00618230
728.318	-0.00641023
728.396	-0.00540697
728.474	-0.00358872
728.552	-0.00149402
728.630	-0.0000594023
728.709	0.0000981676
728.787	-0.000922432
728.865	-0.00228483
728.943	-0.00293104
729.021	-0.00202481
729.099	0.000625958
729.177	0.00437852
729.255	0.00813103
729.334	0.0106310
729.412	0.0111724
729.490	0.00962439
729.568	0.00676702
729.646	0.00340983
729.724	0.000494999
729.802	-0.00146051
729.880	-0.00243287
729.959	-0.00231815
730.037	-0.00148705
730.115	-0.000210102
730.193	0.00117592
730.271	0.00241971
730.349	0.00309247
730.427	0.00316104
730.505	0.00261763
730.584	0.00157940
730.662	0.000678631
730.740	0.000371670
730.818	0.000955547
730.896	0.00264593
730.974	0.00500040
731.052	0.00739952
731.130	0.00912549
731.209	0.00978621
731.287	0.00933349
731.365	0.00816125
731.443	0.00668216
731.521	0.00537873
731.599	0.00443247
731.677	0.00393478
731.755	0.00375409
731.834	0.00380146
731.912	0.00410215
731.990	0.00463858
732.068	0.00531464
732.146	0.00574756
732.224	0.00564542
732.302	0.00496676
732.380	0.00379974
732.459	0.00281470
732.537	0.00269785
732.615	0.00385440
732.693	0.00612767
732.771	0.00880561
732.849	0.0110794
732.927	0.0121007
733.005	0.0115802
733.084	0.00985147
733.162	0.00756032
733.240	0.00533981
733.318	0.00355062
733.396	0.00224566
733.474	0.00112446
733.552	0.00000619521
733.630	-0.00124358
733.709	-0.00252564
733.787	-0.00372372
733.865	-0.00462378
733.943	-0.00520030
734.021	-0.00559817
734.099	-0.00561490
734.177	-0.00541195
734.255	-0.00485704
734.334	-0.00400926
734.412	-0.00314200
734.490	-0.00238515
734.568	-0.00201625
734.646	-0.00217655
734.724	-0.00293332
734.802	-0.00398968
734.880	-0.00520241
734.959	-0.00631684
735.037	-0.00734613
735.115	-0.00836053
735.193	-0.00946469
735.271	-0.0106014
735.349	-0.0116522
735.427	-0.0124279
735.505	-0.0129773
735.584	-0.0133047
735.662	-0.0135344
735.740	-0.0138584
735.818	-0.0144174
735.896	-0.0152151
735.974	-0.0159429
736.052	-0.0163243
736.130	-0.0161813
736.209	-0.0155648
736.287	-0.0146605
736.365	-0.0138164
736.443	-0.0133702
736.521	-0.0133091
736.599	-0.0135268
736.677	-0.0136276
736.755	-0.0132622
736.834	-0.0123150
736.912	-0.0111041
736.990	-0.00974184
737.068	-0.00863803
737.146	-0.00798005
737.224	-0.00770368
737.302	-0.00750989
737.380	-0.00720161
737.459	-0.00666793
737.537	-0.00584803
737.615	-0.00471690
737.693	-0.00333087
737.771	-0.00172738
737.849	0.000128922
737.927	0.00192371
738.005	0.00356210
738.084	0.00479012
738.162	0.00552950
738.240	0.00578757
738.318	0.00609183
738.396	0.00651565
738.474	0.00720012
738.552	0.00788526
738.630	0.00818576
738.709	0.00793508
738.787	0.00696015
738.865	0.00562903
738.943	0.00432780
739.021	0.00352656
739.099	0.00340710
739.177	0.00387655
739.255	0.00472949
739.334	0.00568034
739.412	0.00657317
739.490	0.00734533
739.568	0.00804773
739.646	0.00856654
739.724	0.00900236
739.802	0.00917993
739.880	0.00902143
739.959	0.00842406
740.037	0.00769312
740.115	0.00700160
740.193	0.00665730
740.271	0.00654293
740.349	0.00669085
740.427	0.00671269
740.505	0.00639761
740.584	0.00560001
740.662	0.00419941
740.740	0.00249488
740.818	0.000800739
740.896	-0.000605812
740.974	-0.00143248
741.052	-0.00139363
741.130	-0.000603062
741.209	0.000701531
741.287	0.00212864
741.365	0.00343253
741.443	0.00410315
741.521	0.00405169
741.599	0.00346490
741.677	0.00277776
741.755	0.00222466
741.834	0.00222651
741.912	0.00295372
741.990	0.00407325
742.068	0.00537951
742.146	0.00648799
742.224	0.00690049
742.302	0.00653863
742.380	0.00543257
742.459	0.00373426
742.537	0.00185534
742.615	0.000141430
742.693	-0.00120315
742.771	-0.00190130
742.849	-0.00192673
742.927	-0.00160491
743.005	-0.000990570
743.084	-0.000396541
743.162	0.000156639
743.240	0.000543598
743.318	0.000809174
743.396	0.00108536
743.474	0.00132771
743.552	0.00153927
743.630	0.00177471
743.709	0.00196100
743.787	0.00199705
743.865	0.00192640
743.943	0.00165607
744.021	0.00119457
744.099	0.000418160
744.177	-0.000729053
744.255	-0.00213186
744.334	-0.00353350
744.412	-0.00483661
744.490	-0.00566923
744.568	-0.00577830
744.646	-0.00522760
744.724	-0.00397922
744.802	-0.00235980
744.880	-0.000943676
744.959	0.0000988542
745.037	0.000765125
745.115	0.000910633
745.193	0.000922527
745.271	0.00105893
745.349	0.00150901
745.427	0.00231992
745.505	0.00339786
745.584	0.00441163
745.662	0.00501072
745.740	0.00502890
745.818	0.00465646
745.896	0.00394875
745.974	0.00331208
746.052	0.00301026
746.130	0.00317796
746.209	0.00361973
746.287	0.00428493
746.365	0.00490221
746.443	0.00537701
746.521	0.00576513
746.599	0.00620096
746.677	0.00679315
746.755	0.00735663
746.834	0.00803964
746.912	0.00852690
746.990	0.00885933
747.068	0.00914904
747.146	0.00946365
747.224	0.00968308
747.302	0.00993670
747.380	0.0100886
747.459	0.0101745
747.537	0.0100280
747.615	0.00953432
747.693	0.00869929
747.771	0.00757714
747.849	0.00596605
747.927	0.00394196
748.005	0.00168935
748.084	-0.000611519
748.162	-0.00261121
748.240	-0.00419221
748.318	-0.00520140
748.396	-0.00565602
748.474	-0.00566703
748.552	-0.00551980
748.630	-0.00537099
748.709	-0.00523841
748.787	-0.00510292
748.865	-0.00487730
748.943	-0.00439043
749.021	-0.00378762
749.099	-0.00304774
749.177	-0.00227308
749.255	-0.00182566
749.334	-0.00170641
749.412	-0.00189165
749.490	-0.00235160
749.568	-0.00302765
749.646	-0.00353153
749.724	-0.00392423
749.802	-0.00414050
749.880	-0.00420288
749.959	-0.00421904
750.037	-0.00402584
750.115	-0.00364870
750.193	-0.00302756
750.271	-0.00208915
750.349	-0.00104356
750.427	0.00000718322
750.505	0.000882935
750.584	0.00130332
750.662	0.00130682
750.740	0.000986046
750.818	0.000512161
750.896	0.00000990310
750.974	-0.000298778
751.052	-0.000492367
751.130	-0.000583637
751.209	-0.000605190
751.287	-0.000693596
751.365	-0.000873985
751.443	-0.00124870
751.521	-0.00167411
751.599	-0.00220553
751.677	-0.00274021
751.755	-0.00305482
751.834	-0.00320641
751.912	-0.00311539
751.990	-0.00295176
752.068	-0.00265299
752.146	-0.00236149
752.224	-0.00203076
752.302	-0.00148550
752.380	-0.000759224
752.459	0.000188858
752.537	0.00123772
752.615	0.00210058
752.693	0.00273315
752.771	0.00294493
752.849	0.00287706
752.927	0.00260939
753.005	0.00232918
753.084	0.00207269
753.162	0.00182291
753.240	0.00152723
753.318	0.00118613
753.396	0.000758259
753.474	0.000264160
753.552	-0.000274727
753.630	-0.000879539
753.709	-0.00142199
753.787	-0.00177548
753.865	-0.00182388
753.943	-0.00132212
754.021	-0.000265236
754.099	0.00122933
754.177	0.00278842
754.255	0.00402719
754.334	0.00472183
754.412	0.00476824
754.490	0.00428407
754.568	0.00368662
754.646	0.00310238
754.724	0.00268054
754.802	0.00244138
754.880	0.00224789
754.959	0.00207370
755.037	0.00184052
755.115	0.00159538
755.193	0.00139290
755.271	0.00114332
755.349	0.000940819
755.427	0.000761707
755.505	0.000564613
755.584	0.000530678
755.662	0.000728104
755.740	0.00119436
755.818	0.00194873
755.896	0.00283923
755.974	0.00365473
756.052	0.00415437
756.130	0.00417059
756.209	0.00364381
756.287	0.00280784
756.365	0.00174747
756.443	0.000951325
756.521	0.000484505
756.599	0.000517033
756.677	0.00103782
756.755	0.00161288
756.834	0.00206803
756.912	0.00217368
756.990	0.00165573
757.068	0.000712196
757.146	-0.000540138
757.224	-0.00160876
757.302	-0.00239196
757.380	-0.00244207
757.459	-0.00185901
757.537	-0.000662933
757.615	0.000786617
757.693	0.00219650
757.771	0.00315081
757.849	0.00347982
757.927	0.00314375
758.005	0.00234818
758.084	0.00143568
758.162	0.000828064
758.240	0.000688450
758.318	0.00107485
758.396	0.00169719
758.474	0.00220284
758.552	0.00234113
758.630	0.00191652
758.709	0.000914597
758.787	-0.000406715
758.865	-0.00167381
758.943	-0.00266784
759.021	-0.00318472
759.099	-0.00316159
759.177	-0.00264107
759.255	-0.00166578
759.334	-0.000424515
759.412	0.000826088
759.490	0.00194377
759.568	0.00275840
759.646	0.00311280
759.724	0.00292245
759.802	0.00242289
759.880	0.00169173
759.959	0.000992260
760.037	0.000468216
760.115	0.000118241
760.193	0.0000141222
760.271	-0.0000466307
760.349	-0.000131767
760.427	-0.000463127
760.505	-0.000885506
760.584	-0.00156085
760.662	-0.00228176
760.740	-0.00286400
760.818	-0.00331710
760.896	-0.00349982
760.974	-0.00335403
761.052	-0.00291837
761.130	-0.00240511
761.209	-0.00198942
761.287	-0.00185630
761.365	-0.00211507
761.443	-0.00270762
761.521	-0.00335862
761.599	-0.00403041
761.677	-0.00452226
761.755	-0.00455779
761.834	-0.00446333
761.912	-0.00418662
761.990	-0.00395959
762.068	-0.00387746
762.146	-0.00391433
762.224	-0.00401532
762.302	-0.00402368
762.380	-0.00383216
762.459	-0.00352735
762.537	-0.00314909
762.615	-0.00284618
762.693	-0.00262595
762.771	-0.00242931
762.849	-0.00225329
762.927	-0.00194145
763.005	-0.00146326
763.084	-0.000873119
763.162	-0.000190815
763.240	0.000526974
763.318	0.00111893
763.396	0.00158422
763.474	0.00177956
763.552	0.00169025
763.630	0.00138037
763.709	0.000930611
763.787	0.000264061
763.865	-0.000407390
763.943	-0.00104772
764.021	-0.00155764
764.099	-0.00191934
764.177	-0.00219223
764.255	-0.00244632
764.334	-0.00268855
764.412	-0.00282549
764.490	-0.00285884
764.568	-0.00267626
764.646	-0.00214883
764.724	-0.00136299
764.802	-0.000398987
764.880	0.000620724
764.959	0.00149110
765.037	0.00204502
765.115	0.00230132
765.193	0.00236658
765.271	0.00225359
765.349	0.00206521
765.427	0.00192061
765.505	0.00167509
765.584	0.00141668
765.662	0.00126607
765.740	0.00121899
765.818	0.00140884
765.896	0.00187912
765.974	0.00252742
766.052	0.00310915
766.130	0.00365544
766.209	0.00391835
766.287	0.00407893
766.365	0.00430848
766.443	0.00477612
766.521	0.00555551
766.599	0.00671382
766.677	0.00791162
766.755	0.00907919
766.834	0.00987062
766.912	0.0101683
766.990	0.00990797
767.068	0.00914594
767.146	0.00803714
767.224	0.00676342
767.302	0.00558262
767.380	0.00445425
767.459	0.00341557
767.537	0.00243333
767.615	0.00150717
767.693	0.000441982
767.771	-0.000672485
767.849	-0.00179758
767.927	-0.00287661
768.005	-0.00372299
768.084	-0.00429768
768.162	-0.00456449
768.240	-0.00442087
768.318	-0.00373478
768.396	-0.00273838
768.474	-0.00146663
768.552	-0.0000686377
768.630	0.00110983
768.709	0.00197504
768.787	0.00253101
768.865	0.00268818
768.943	0.00263040
769.021	0.00233014
769.099	0.00184600
769.177	0.00124967
769.255	0.000567227
769.334	-0.000300548
769.412	-0.000982586
769.490	-0.00160404
769.568	-0.00203870
769.646	-0.00237300
769.724	-0.00264616
769.802	-0.00303427
769.880	-0.00351973
769.959	-0.00403350
770.037	-0.00443459
770.115	-0.00438923
770.193	-0.00382106
770.271	-0.00290226
770.349	-0.00168729
770.427	-0.000509109
770.505	0.000366718
770.584	0.000936943
770.662	0.00114843
770.740	0.00114609
770.818	0.00102198
770.896	0.000830357
770.974	0.000600456
771.052	0.000345493
771.130	0.000108425
771.209	-0.0000440215
771.287	-0.000109493
771.365	-0.000267326
771.443	-0.000363933
771.521	-0.000649143
771.599	-0.00101109
771.677	-0.00145617
771.755	-0.00193139
771.834	-0.00238414
771.912	-0.00262619
771.990	-0.00268610
772.068	-0.00254895
772.146	-0.00222310
772.224	-0.00179024
772.302	-0.00127697
772.380	-0.000871967
772.459	-0.000625591
772.537	-0.000684318
772.615	-0.000930946
772.693	-0.00134376
772.771	-0.00170610
772.849	-0.00197506
772.927	-0.00193787
773.005	-0.00178584
773.084	-0.00148546
773.162	-0.00130282
773.240	-0.00125329
773.318	-0.00142908
773.396	-0.00180727
773.474	-0.00233891
773.552	-0.00276320
773.630	-0.00298472
773.709	-0.00283786
773.787	-0.00218814
773.865	-0.00125570
773.943	-0.000182487
774.021	0.000865650
774.099	0.00143564
774.177	0.00158220
774.255	0.00130571
774.334	0.000641659
774.412	-0.0000643042
774.490	-0.000665188
774.568	-0.00101424
774.646	-0.00108680
774.724	-0.000975174
774.802	-0.000892925
774.880	-0.000805176
774.959	-0.000790020
775.037	-0.000941574
775.115	-0.00127726
775.193	-0.00157612
775.271	-0.00178214
775.349	-0.00180875
775.427	-0.00155990
775.505	-0.00101932
775.584	-0.000259613
775.662	0.000667492
775.740	0.00152579
775.818	0.00222564
775.896	0.00259663
775.974	0.00260958
776.052	0.00230832
776.130	0.00168866
776.209	0.00102594
776.287	0.000422074
776.365	0.0000373117
776.443	-0.0000217131
776.521	0.000183308
776.599	0.000535290
776.677	0.000930863
776.755	0.00118852
776.834	0.00119432
776.912	0.000956520
776.990	0.000616799
777.068	0.000256550
777.146	0.00000339141
777.224	-0.000000820014
777.302	0.000297085
777.380	0.000784355
777.459	0.00146688
777.537	0.00209341
777.615	0.00253432
777.693	0.00276888
777.771	0.00277215
777.849	0.00259562
777.927	0.00238497
778.005	0.00229959
778.084	0.00228980
778.162	0.00231927
778.240	0.00236689
778.318	0.00230523
778.396	0.00213124
778.474	0.00197925
778.552	0.00181479
778.630	0.00167413
778.709	0.00151765
778.787	0.00144719
778.865	0.00140353
778.943	0.00146801
779.021	0.00167024
779.099	0.00191815
779.177	0.00230880
779.255	0.00277055
779.334	0.00322242
779.412	0.00359502
779.490	0.00389932
779.568	0.00401407
779.646	0.00408433
779.724	0.00401608
779.802	0.00374566
779.880	0.00331692
779.959	0.00271370
780.037	0.00218415
780.115	0.00159989
780.193	0.00109756
780.271	0.000722462
780.349	0.000470684
780.427	0.000316902
780.505	0.000150536
780.584	-0.0000615118
780.662	-0.000220642
780.740	-0.000366314
780.818	-0.000411842
780.896	-0.000337032
780.974	-0.000229515
781.052	-0.000108520
781.130	-0.000128727
781.209	-0.000354416
781.287	-0.000614071
781.365	-0.000887543
781.443	-0.00114614
781.521	-0.00121340
781.599	-0.00129290
781.677	-0.00124199
781.755	-0.00123842
781.834	-0.00129965
781.912	-0.00142777
781.990	-0.00153661
782.068	-0.00154045
782.146	-0.00147520
782.224	-0.00123540
782.302	-0.000864231
782.380	-0.000537437
782.459	-0.000253486
782.537	-0.0000816992
782.615	0.0000655672
782.693	0.000133309
782.771	0.000232319
782.849	0.000408432
782.927	0.000739456
783.005	0.00113268
783.084	0.00156107
783.162	0.00196952
783.240	0.00225661
783.318	0.00241575
783.396	0.00246789
783.474	0.00241748
783.552	0.00234137
783.630	0.00219182
783.709	0.00212298
783.787	0.00206013
783.865	0.00211784
783.943	0.00218003
784.021	0.00226982
784.099	0.00236757
784.177	0.00238540
784.255	0.00237633
784.334	0.00233202
784.412	0.00223409
784.490	0.00231561
784.568	0.00245921
784.646	0.00278868
784.724	0.00312979
784.802	0.00353738
784.880	0.00389270
784.959	0.00408396
785.037	0.00407744
785.115	0.00394362
785.193	0.00355746
785.271	0.00309949
785.349	0.00251333
785.427	0.00181447
785.505	0.00115418
785.584	0.000579785
785.662	0.000263367
785.740	0.000233612
785.818	0.000385254
785.896	0.000734242
785.974	0.00104492
786.052	0.00118384
786.130	0.00110490
786.209	0.000880863
786.287	0.000549946
786.365	0.000309887
786.443	0.000178059
786.521	0.000333439
786.599	0.000608593
786.677	0.000872376
786.755	0.00110493
786.834	0.00114684
786.912	0.000965965
786.990	0.000577332
787.068	0.0000644380
787.146	-0.000479351
787.224	-0.000932472
787.302	-0.00128766
787.380	-0.00150468
787.459	-0.00155398
787.537	-0.00147033
787.615	-0.00138159
787.693	-0.00120477
787.771	-0.00113138
787.849	-0.00108943
787.927	-0.00111920
788.005	-0.00123516
788.084	-0.00133915
788.162	-0.00139073
788.240	-0.00136501
788.318	-0.00116394
788.396	-0.000835636
788.474	-0.000563381
788.552	-0.000329361
788.630	-0.000152531
788.709	-0.000191830
788.787	-0.000372310
788.865	-0.000645607
788.943	-0.000953945
789.021	-0.00122200
789.099	-0.00132358
789.177	-0.00130376
789.255	-0.00113793
789.334	-0.000855148
789.412	-0.000453033
789.490	0.0000123560
789.568	0.000385178
789.646	0.000649380
789.724	0.000734688
789.802	0.000863602
789.880	0.000936722
789.959	0.00110669
790.037	0.00145493
790.115	0.00189532
790.193	0.00224878
790.271	0.00246026
790.349	0.00241933
790.427	0.00210101
790.505	0.00151384
790.584	0.000789120
790.662	0.0000692064
790.740	-0.000609447
790.818	-0.00115134
790.896	-0.00159406
790.974	-0.00188393
791.052	-0.00217778
791.130	-0.00245543
791.209	-0.00275125
791.287	-0.00318371
791.365	-0.00359460
791.443	-0.00386682
791.521	-0.00409793
791.599	-0.00415890
791.677	-0.00391767
791.755	-0.00362360
791.834	-0.00319301
791.912	-0.00274034
791.990	-0.00229618
792.068	-0.00197319
792.146	-0.00180661
792.224	-0.00191779
792.302	-0.00228406
792.380	-0.00301124
792.459	-0.00400695
792.537	-0.00509151
792.615	-0.00615992
792.693	-0.00709682
792.771	-0.00753227
792.849	-0.00754384
792.927	-0.00713087
793.005	-0.00639573
793.084	-0.00556311
793.162	-0.00466431
793.240	-0.00392683
793.318	-0.00340025
793.396	-0.00284780
793.474	-0.00229887
793.552	-0.00165188
793.630	-0.00101497
793.709	-0.000334679
793.787	0.000287804
793.865	0.000808643
793.943	0.00107690
794.021	0.00119912
794.099	0.00121191
794.177	0.00113364
794.255	0.000943264
794.334	0.000772125
794.412	0.000520756
794.490	0.000305748
794.568	0.000116352
794.646	-0.0000746077
794.724	-0.000178169
794.802	-0.000184353
794.880	-0.000213585
794.959	-0.000214279
795.037	-0.000134724
795.115	0.000000934747
795.193	0.000137268
795.271	0.000438770
795.349	0.000700569
795.427	0.000956070
795.505	0.00118227
795.584	0.00132470
795.662	0.00149466
795.740	0.00155508
795.818	0.00157632
795.896	0.00148456
795.974	0.00125526
796.052	0.000897778
796.130	0.000472126
796.209	0.0000245554
796.287	-0.000364838
796.365	-0.000700653
796.443	-0.000726391
796.521	-0.000693386
796.599	-0.000573990
796.677	-0.000420616
796.755	-0.000259476
796.834	-0.000129524
796.912	0.0000642587
796.990	0.000184235
797.068	0.000391575
797.146	0.000578770
797.224	0.000801769
797.302	0.00101080
797.380	0.00118356
797.459	0.00134986
797.537	0.00135157
797.615	0.00127895
797.693	0.00122874
797.771	0.00112561
797.849	0.00112034
797.927	0.00115798
798.005	0.00118533
798.084	0.00126068
798.162	0.00118081
798.240	0.00111373
798.318	0.000912136
798.396	0.000638119
798.474	0.000408203
798.552	0.000265457
798.630	0.000235130
798.709	0.000288654
798.787	0.000462032
798.865	0.000721329
798.943	0.000999802
799.021	0.00129366
799.099	0.00159978
799.177	0.00175913
799.255	0.00180748
799.334	0.00174181
799.412	0.00152787
799.490	0.00119530
799.568	0.000801693
799.646	0.000510643
799.724	0.000121945
799.802	-0.000261970
799.880	-0.000619350
799.959	-0.00105697
800.037	-0.00152709
800.115	-0.00200023
800.193	-0.00236534
800.271	-0.00267368
800.349	-0.00282642
800.427	-0.00283569
800.505	-0.00274526
800.584	-0.00245237
800.662	-0.00209557
800.740	-0.00165763
800.818	-0.00127570
800.896	-0.000891579
800.974	-0.000661297
801.052	-0.000525501
801.130	-0.000354751
801.209	-0.000184585
801.287	0.0000691072
801.365	0.000384209
801.443	0.000792553
801.521	0.00130045
801.599	0.00168028
801.677	0.00194193
801.755	0.00206731
801.834	0.00209835
801.912	0.00199879
801.990	0.00191401
802.068	0.00184071
802.146	0.00187392
802.224	0.00199942
802.302	0.00208247
802.380	0.00208299
802.459	0.00192520
802.537	0.00173230
802.615	0.00140445
802.693	0.00113987
802.771	0.000920975
802.849	0.000927261
802.927	0.00105288
803.005	0.00127908
803.084	0.00155940
803.162	0.00184247
803.240	0.00199744
803.318	0.00209519
803.396	0.00212230
803.474	0.00204437
803.552	0.00195847
803.630	0.00192152
803.709	0.00195597
803.787	0.00202329
803.865	0.00220025
803.943	0.00251181
804.021	0.00286038
804.099	0.00327583
804.177	0.00368237
804.255	0.00397123
804.334	0.00420541
804.412	0.00435740
804.490	0.00455215
804.568	0.00485617
804.646	0.00519286
804.724	0.00559701
804.802	0.00605169
804.880	0.00645921
804.959	0.00671085
805.037	0.00691355
805.115	0.00697668
805.193	0.00691406
805.271	0.00681943
805.349	0.00669957
805.427	0.00664566
805.505	0.00670892
805.584	0.00688394
805.662	0.00719416
805.740	0.00756803
805.818	0.00801122
805.896	0.00843530
805.974	0.00877221
806.052	0.00898088
806.130	0.00910212
806.209	0.00922446
806.287	0.00934792
806.365	0.00956466
806.443	0.00984088
806.521	0.0100915
806.599	0.0101909
806.677	0.0102059
806.755	0.0100083
806.834	0.00971613
806.912	0.00947839
806.990	0.00925665
807.068	0.00914816
807.146	0.00915105
807.224	0.00922385
807.302	0.00922836
807.380	0.00926760
807.459	0.00910775
807.537	0.00891730
807.615	0.00868791
807.693	0.00837753
807.771	0.00804842
807.849	0.00766441
807.927	0.00737256
808.005	0.00705799
808.084	0.00674707
808.162	0.00648476
808.240	0.00616808
808.318	0.00578028
808.396	0.00526154
808.474	0.00478249
808.552	0.00425508
808.630	0.00374586
808.709	0.00337438
808.787	0.00295163
808.865	0.00259890
808.943	0.00222057
809.021	0.00168242
809.099	0.000916676
809.177	-0.0000862273
809.255	-0.00147034
809.334	-0.00329288
809.412	-0.00574572
809.490	-0.00875846
809.568	-0.0124072
809.646	-0.0165725
809.724	-0.0210818
809.802	-0.0253870
809.880	-0.0292906
809.959	-0.0325943
810.037	-0.0350996
810.115	-0.0369281
810.193	-0.0381416
810.271	-0.0387674
810.349	-0.0388710
810.427	-0.0383313
810.505	-0.0371936
810.584	-0.0353279
810.662	-0.0327685
810.740	-0.0293410
810.818	-0.0251424
810.896	-0.0204994
810.974	-0.0157497
811.052	-0.0114320
811.130	-0.00773390
811.209	-0.00479794
811.287	-0.00247361
811.365	-0.000383152
811.443	0.00157064
811.521	0.00354173
811.599	0.00539492
811.677	0.00706676
811.755	0.00831284
811.834	0.00904078
811.912	0.00938082
811.990	0.00938153
812.068	0.00917768
812.146	0.00879979
812.224	0.00827637
812.302	0.00774398
812.380	0.00714149
812.459	0.00659644
812.537	0.00600615
812.615	0.00541484
812.693	0.00480494
812.771	0.00423467
812.849	0.00373989
812.927	0.00335990
813.005	0.00314546
813.084	0.00291988
813.162	0.00272738
813.240	0.00252611
813.318	0.00224909
813.396	0.00198483
813.474	0.00163705
813.552	0.00134887
813.630	0.00101131
813.709	0.000646980
813.787	0.000274071
813.865	-0.000173263
813.943	-0.000569279
814.021	-0.00103717
814.099	-0.00152277
814.177	-0.00210267
814.255	-0.00275111
814.334	-0.00345234
814.412	-0.00418189
814.490	-0.00480278
814.568	-0.00537680
814.646	-0.00575018
814.724	-0.00585633
814.802	-0.00575510
814.880	-0.00538461
814.959	-0.00478132
815.037	-0.00404704
815.115	-0.00310394
815.193	-0.00207657
815.271	-0.00109639
815.349	-0.000113182
815.427	0.000718979
815.505	0.00136057
815.584	0.00178128
815.662	0.00198197
815.740	0.00192118
815.818	0.00172065
815.896	0.00149094
815.974	0.00125185
816.052	0.00109937
816.130	0.000923233
816.209	0.000829071
816.287	0.000719345
816.365	0.000610657
816.443	0.000536228
816.521	0.000514546
816.599	0.000528603
816.677	0.000645851
816.755	0.000862969
816.834	0.00122327
816.912	0.00165940
816.990	0.00211232
817.068	0.00259452
817.146	0.00299714
817.224	0.00332646
817.302	0.00356635
817.380	0.00378638
817.459	0.00395960
817.537	0.00424024
817.615	0.00462840
817.693	0.00518749
817.771	0.00583968
817.849	0.00661869
817.927	0.00732060
818.005	0.00801849
818.084	0.00852013
818.162	0.00891917
818.240	0.00916726
818.318	0.00934199
818.396	0.00948212
818.474	0.00961937
818.552	0.00981485
818.630	0.00999665
818.709	0.0100146
818.787	0.00998832
818.865	0.00985373
818.943	0.00954806
819.021	0.00914809
819.099	0.00863337
819.177	0.00805610
819.255	0.00741189
819.334	0.00677866
819.412	0.00612023
819.490	0.00555584
819.568	0.00497934
819.646	0.00444544
819.724	0.00392215
819.802	0.00339670
819.880	0.00293544
819.959	0.00240722
820.037	0.00198843
820.115	0.00168285
820.193	0.00147124
820.271	0.00144801
820.349	0.00153749
820.427	0.00166792
820.505	0.00180927
820.584	0.00183257
820.662	0.00181237
820.740	0.00167779
820.818	0.00143179
820.896	0.00115116
820.974	0.000795967
821.052	0.000415520
821.130	0.0000460779
821.209	-0.000350223
821.287	-0.000717159
821.365	-0.00110830
821.443	-0.00154789
821.521	-0.00204134
821.599	-0.00256137
821.677	-0.00310601
821.755	-0.00358202
821.834	-0.00397960
821.912	-0.00419548
821.990	-0.00430178
822.068	-0.00418193
822.146	-0.00391597
822.224	-0.00359861
822.302	-0.00326200
822.380	-0.00290017
822.459	-0.00258653
822.537	-0.00225794
822.615	-0.00195961
822.693	-0.00159084
822.771	-0.00135486
822.849	-0.00109488
822.927	-0.000917042
823.005	-0.000759033
823.084	-0.000728004
823.162	-0.000725738
823.240	-0.000779632
823.318	-0.000823776
823.396	-0.000831295
823.474	-0.000918224
823.552	-0.00101826
823.630	-0.00103535
823.709	-0.000992294
823.787	-0.000847530
823.865	-0.000654648
823.943	-0.000345039
824.021	0.0000178339
824.099	0.000412728
824.177	0.000703583
824.255	0.00103263
824.334	0.00126197
824.412	0.00138906
824.490	0.00140684
824.568	0.00133588
824.646	0.00119251
824.724	0.000976891
824.802	0.000697521
824.880	0.000526085
824.959	0.000303692
825.037	0.000179997
825.115	0.0000936700
825.193	0.0000270044
825.271	-0.0000443381
825.349	-0.000161514
825.427	-0.000263923
825.505	-0.000402260
825.584	-0.000494804
825.662	-0.000538807
825.740	-0.000468910
825.818	-0.000460998
825.896	-0.000356922
825.974	-0.000236416
826.052	-0.000155369
826.130	-0.0000550841
826.209	0.00000410095
826.287	-0.0000127257
826.365	-0.0000129584
826.443	-0.000151737
826.521	-0.000378136
826.599	-0.000613335
826.677	-0.000884537
826.755	-0.00103795
826.834	-0.00112944
826.912	-0.00112221
826.990	-0.00106579
827.068	-0.00104494
827.146	-0.00109386
827.224	-0.00115259
827.302	-0.00122310
827.380	-0.00116610
827.459	-0.000998031
827.537	-0.000804424
827.615	-0.000556763
827.693	-0.000261928
827.771	0.0000307237
827.849	0.000293705
827.927	0.000535862
828.005	0.000672890
828.084	0.000830670
828.162	0.000927830
828.240	0.000976418
828.318	0.00106186
828.396	0.00117447
828.474	0.00137999
828.552	0.00149218
828.630	0.00172610
828.709	0.00187736
828.787	0.00195242
828.865	0.00194551
828.943	0.00190104
829.021	0.00183016
829.099	0.00173722
829.177	0.00172027
829.255	0.00170787
829.334	0.00175626
829.412	0.00183471
829.490	0.00199378
829.568	0.00216248
829.646	0.00231590
829.724	0.00251316
829.802	0.00262127
829.880	0.00269952
829.959	0.00270918
830.037	0.00255842
830.115	0.00249129
830.193	0.00244959
830.271	0.00236090
830.349	0.00226197
830.427	0.00225149
830.505	0.00219579
830.584	0.00208501
830.662	0.00199590
830.740	0.00183138
830.818	0.00169793
830.896	0.00155694
830.974	0.00151909
831.052	0.00154580
831.130	0.00161941
831.209	0.00169633
831.287	0.00178391
831.365	0.00180871
831.443	0.00189289
831.521	0.00187317
831.599	0.00172924
831.677	0.00155072
831.755	0.00132126
831.834	0.000962917
831.912	0.000658402
831.990	0.000403240
832.068	0.000157459
832.146	0.0000499422
832.224	-0.0000212096
832.302	-0.0000975951
832.380	-0.000147789
832.459	-0.000169742
832.537	-0.000184200
832.615	-0.000117847
832.693	-0.0000867575
832.771	0.00000651565
832.849	0.0000805704
832.927	0.000196236
833.005	0.000305702
833.084	0.000458683
833.162	0.000657986
833.240	0.000891274
833.318	0.00113178
833.396	0.00128599
833.474	0.00137266
833.552	0.00142396
833.630	0.00130410
833.709	0.00112800
833.787	0.000869209
833.865	0.000466435
833.943	-0.0000244559
834.021	-0.000483276
834.099	-0.000856373
834.177	-0.00104485
834.255	-0.000902996
834.334	-0.000406879
834.412	0.000448490
834.490	0.00152180
834.568	0.00271923
834.646	0.00378467
834.724	0.00463352
834.802	0.00510683
834.880	0.00522503
834.959	0.00499076
835.037	0.00447450
835.115	0.00376880
835.193	0.00305153
835.271	0.00236925
835.349	0.00172099
835.427	0.00116896
835.505	0.000550118
835.584	0.0000221979
835.662	-0.000467285
835.740	-0.000958160
835.818	-0.00137135
835.896	-0.00177313
835.974	-0.00224320
836.052	-0.00279303
836.130	-0.00332679
836.209	-0.00400039
836.287	-0.00469715
836.365	-0.00539110
836.443	-0.00607202
836.521	-0.00671648
836.599	-0.00723325
836.677	-0.00756523
836.755	-0.00791384
836.834	-0.00813411
836.912	-0.00822636
836.990	-0.00821558
837.068	-0.00820437
837.146	-0.00804619
837.224	-0.00786624
837.302	-0.00761692
837.380	-0.00734425
837.459	-0.00694376
837.537	-0.00649532
837.615	-0.00597965
837.693	-0.00540324
837.771	-0.00489013
837.849	-0.00424694
837.927	-0.00370131
838.005	-0.00325304
838.084	-0.00279346
838.162	-0.00234486
838.240	-0.00186379
838.318	-0.00141436
838.396	-0.000910301
838.474	-0.000373585
838.552	0.000124893
838.630	0.000691113
838.709	0.00119683
838.787	0.00167611
838.865	0.00218346
838.943	0.00267498
839.021	0.00314987
839.099	0.00355570
839.177	0.00386428
839.255	0.00407590
839.334	0.00423212
839.412	0.00441216
839.490	0.00453750
839.568	0.00471643
839.646	0.00478414
839.724	0.00479371
839.802	0.00469431
839.880	0.00456507
839.959	0.00432522
840.037	0.00408953
840.115	0.00393017
840.193	0.00384006
840.271	0.00383771
840.349	0.00392623
840.427	0.00395628
840.505	0.00404900
840.584	0.00409194
840.662	0.00403956
840.740	0.00381022
840.818	0.00353524
840.896	0.00308050
840.974	0.00259480
841.052	0.00213483
841.130	0.00167732
841.209	0.00130758
841.287	0.00103318
841.365	0.000812027
841.443	0.000723644
841.521	0.000569637
841.599	0.000485016
841.677	0.000386532
841.755	0.000343411
841.834	0.000387985
841.912	0.000452973
841.990	0.000607708
842.068	0.000739422
842.146	0.000948509
842.224	0.00112630
842.302	0.00127509
842.380	0.00147147
842.459	0.00165529
842.537	0.00181605
842.615	0.00199925
842.693	0.00219732
842.771	0.00228389
842.849	0.00246068
842.927	0.00266339
843.005	0.00289512
843.084	0.00313752
843.162	0.00332462
843.240	0.00346151
843.318	0.00352015
843.396	0.00361627
843.474	0.00353932
843.552	0.00350168
843.630	0.00348861
843.709	0.00345120
843.787	0.00344760
843.865	0.00342059
843.943	0.00337350
844.021	0.00331659
844.099	0.00325159
844.177	0.00315170
844.255	0.00300003
844.334	0.00293628
844.412	0.00280648
844.490	0.00268903
844.568	0.00259594
844.646	0.00255917
844.724	0.00245908
844.802	0.00237052
844.880	0.00228535
844.959	0.00222371
845.037	0.00216330
845.115	0.00212960
845.193	0.00208065
845.271	0.00215529
845.349	0.00221602
845.427	0.00230680
845.505	0.00240023
845.584	0.00238349
845.662	0.00231096
845.740	0.00209624
845.818	0.00186819
845.896	0.00151984
845.974	0.00112365
846.052	0.000697697
846.130	0.000203549
846.209	-0.000332554
846.287	-0.000931579
846.365	-0.00159557
846.443	-0.00233066
846.521	-0.00306301
846.599	-0.00373870
846.677	-0.00441940
846.755	-0.00508690
846.834	-0.00563731
846.912	-0.00614279
846.990	-0.00660859
847.068	-0.00699587
847.146	-0.00733610
847.224	-0.00766460
847.302	-0.00782211
847.380	-0.00797268
847.459	-0.00796646
847.537	-0.00784913
847.615	-0.00768858
847.693	-0.00732673
847.771	-0.00694289
847.849	-0.00648059
847.927	-0.00599426
848.005	-0.00546822
848.084	-0.00490700
848.162	-0.00434040
848.240	-0.00370974
848.318	-0.00309956
848.396	-0.00245186
848.474	-0.00170933
848.552	-0.00102638
848.630	-0.000373257
848.709	0.000267399
848.787	0.000827484
848.865	0.00134918
848.943	0.00176542
849.021	0.00214312
849.099	0.00245792
849.177	0.00269201
849.255	0.00290722
849.334	0.00307719
849.412	0.00321409
849.490	0.00338210
849.568	0.00348609
849.646	0.00353868
849.724	0.00347906
849.802	0.00328623
849.880	0.00306092
849.959	0.00271164
850.037	0.00226754
850.115	0.00181803
850.193	0.00144164
850.271	0.00114168
850.349	0.000794861
850.427	0.000441662
850.505	0.0000930673
850.584	-0.000347465
850.662	-0.000759899
850.740	-0.00111940
850.818	-0.00146182
850.896	-0.00166125
850.974	-0.00189627
851.052	-0.00207815
851.130	-0.00217635
851.209	-0.00225335
851.287	-0.00238895
851.365	-0.00251113
851.443	-0.00264038
851.521	-0.00281970
851.599	-0.00299140
851.677	-0.00313393
851.755	-0.00333954
851.834	-0.00340586
851.912	-0.00351606
851.990	-0.00351579
852.068	-0.00343729
852.146	-0.00334023
852.224	-0.00322742
852.302	-0.00303958
852.380	-0.00279464
852.459	-0.00247853
852.537	-0.00200315
852.615	-0.00142339
852.693	-0.000771538
852.771	-0.0000248946
852.849	0.000687077
852.927	0.00139294
853.005	0.00208840
853.084	0.00270640
853.162	0.00328907
853.240	0.00381882
853.318	0.00422945
853.396	0.00470863
853.474	0.00516504
853.552	0.00561273
853.630	0.00605865
853.709	0.00640891
853.787	0.00672585
853.865	0.00697774
853.943	0.00722302
854.021	0.00746568
854.099	0.00766808
854.177	0.00788873
854.255	0.00813231
854.334	0.00831016
854.412	0.00850833
854.490	0.00876012
854.568	0.00887295
854.646	0.00895103
854.724	0.00891043
854.802	0.00876261
854.880	0.00844991
854.959	0.00805578
855.037	0.00759214
855.115	0.00712108
855.193	0.00654977
855.271	0.00593844
855.349	0.00524911
855.427	0.00447762
855.505	0.00363890
855.584	0.00278451
855.662	0.00187212
855.740	0.00100485
855.818	0.000219925
855.896	-0.000433201
855.974	-0.00107488
856.052	-0.00160921
856.130	-0.00198721
856.209	-0.00232088
856.287	-0.00259188
856.365	-0.00278468
856.443	-0.00295172
856.521	-0.00304620
856.599	-0.00308357
856.677	-0.00306558
856.755	-0.00308310
856.834	-0.00306365
856.912	-0.00301756
856.990	-0.00304203
857.068	-0.00306712
857.146	-0.00324982
857.224	-0.00339633
857.302	-0.00360133
857.380	-0.00382589
857.459	-0.00397732
857.537	-0.00409296
857.615	-0.00413337
857.693	-0.00410472
857.771	-0.00402237
857.849	-0.00393388
857.927	-0.00378794
858.005	-0.00364138
858.084	-0.00348880
858.162	-0.00333287
858.240	-0.00321608
858.318	-0.00303023
858.396	-0.00289363
858.474	-0.00281184
858.552	-0.00269310
858.630	-0.00259710
858.709	-0.00251228
858.787	-0.00243526
858.865	-0.00235522
858.943	-0.00225985
859.021	-0.00215388
859.099	-0.00205944
859.177	-0.00187804
859.255	-0.00175294
859.334	-0.00151443
859.412	-0.00134909
859.490	-0.00120348
859.568	-0.00110669
859.646	-0.00107539
859.724	-0.00110976
859.802	-0.00120893
859.880	-0.00129700
859.959	-0.00139323
860.037	-0.00148928
860.115	-0.00154214
860.193	-0.00153926
860.271	-0.00151286
860.349	-0.00149445
860.427	-0.00151631
860.505	-0.00157256
860.584	-0.00161717
860.662	-0.00178836
860.740	-0.00192584
860.818	-0.00204380
860.896	-0.00215993
860.974	-0.00219909
861.052	-0.00216896
861.130	-0.00211996
861.209	-0.00199396
861.287	-0.00183086
861.365	-0.00160540
861.443	-0.00125532
861.521	-0.000874821
861.599	-0.000418381
861.677	0.0000579912
861.755	0.000628483
861.834	0.00111342
861.912	0.00160641
861.990	0.00202311
862.068	0.00237328
862.146	0.00273438
862.224	0.00295525
862.302	0.00312627
862.380	0.00324035
862.459	0.00334381
862.537	0.00341805
862.615	0.00349345
862.693	0.00347348
862.771	0.00345746
862.849	0.00334617
862.927	0.00324381
863.005	0.00304135
863.084	0.00283542
863.162	0.00272913
863.240	0.00253435
863.318	0.00242736
863.396	0.00237128
863.474	0.00228032
863.552	0.00223511
863.630	0.00212460
863.709	0.00205964
863.787	0.00201294
863.865	0.00195000
863.943	0.00190821
864.021	0.00190378
864.099	0.00189268
864.177	0.00193068
864.255	0.00202508
864.334	0.00211953
864.412	0.00216985
864.490	0.00230101
864.568	0.00238572
864.646	0.00245002
864.724	0.00249098
864.802	0.00251260
864.880	0.00250955
864.959	0.00251600
865.037	0.00253994
865.115	0.00252527
865.193	0.00249222
865.271	0.00251032
865.349	0.00247743
865.427	0.00246602
865.505	0.00239120
865.584	0.00237367
865.662	0.00231196
865.740	0.00228831
865.818	0.00225570
865.896	0.00230031
865.974	0.00216890
866.052	0.00210909
866.130	0.00194110
866.209	0.00180151
866.287	0.00164005
866.365	0.00147385
866.443	0.00125349
866.521	0.00109016
866.599	0.000856781
866.677	0.000674065
866.755	0.000511349
866.834	0.000275650
866.912	0.000106907
866.990	-0.000111900
867.068	-0.000266834
867.146	-0.000415199
867.224	-0.000645882
867.302	-0.000853611
867.380	-0.00108653
867.459	-0.00133050
867.537	-0.00159249
867.615	-0.00187503
867.693	-0.00223780
867.771	-0.00260548
867.849	-0.00304061
867.927	-0.00335722
868.005	-0.00376732
868.084	-0.00418591
868.162	-0.00460419
868.240	-0.00489750
868.318	-0.00521899
868.396	-0.00551534
868.474	-0.00574665
868.552	-0.00590123
868.630	-0.00593797
868.709	-0.00595014
868.787	-0.00587942
868.865	-0.00571870
868.943	-0.00548542
869.021	-0.00523717
869.099	-0.00497489
869.177	-0.00470569
869.255	-0.00441819
869.334	-0.00414623
869.412	-0.00382739
869.490	-0.00353654
869.568	-0.00324989
869.646	-0.00293897
869.724	-0.00262126
869.802	-0.00227581
869.880	-0.00200088
869.959	-0.00171560
870.037	-0.00146339
870.115	-0.00124172
870.193	-0.00102410
870.271	-0.000828205
870.349	-0.000682525
870.427	-0.000543587
870.505	-0.000415863
870.584	-0.000284088
870.662	-0.000102707
870.740	0.0000336877
870.818	0.000170170
870.896	0.000366650
870.974	0.000439316
871.052	0.000478584
871.130	0.000554619
871.209	0.000603932
871.287	0.000686028
871.365	0.000817810
871.443	0.000944298
871.521	0.00107323
871.599	0.00119229
871.677	0.00135311
871.755	0.00140172
871.834	0.00142384
871.912	0.00140327
871.990	0.00121799
872.068	0.00104883
872.146	0.000847202
872.224	0.000618508
872.302	0.000456597
872.380	0.000305248
872.459	0.000162075
872.537	0.0000422250
872.615	-0.0000525626
872.693	-0.000126682
872.771	-0.000218551
872.849	-0.000302696
872.927	-0.000403313
873.005	-0.000454773
873.084	-0.000439098
873.162	-0.000317272
873.240	-0.000221519
873.318	-0.0000348509
873.396	0.000226925
873.474	0.000539837
873.552	0.000825478
873.630	0.00117417
873.709	0.00152367
873.787	0.00186625
873.865	0.00215948
873.943	0.00243031
874.021	0.00269197
874.099	0.00290954
874.177	0.00299794
874.255	0.00308260
874.334	0.00305259
874.412	0.00307477
874.490	0.00298812
874.568	0.00283426
874.646	0.00270391
874.724	0.00255050
874.802	0.00238509
874.880	0.00227311
874.959	0.00213610
875.037	0.00205735
875.115	0.00196331
875.193	0.00190032
875.271	0.00180288
875.349	0.00176010
875.427	0.00171424
875.505	0.00168397
875.584	0.00161183
875.662	0.00159918
875.740	0.00158805
875.818	0.00159626
875.896	0.00159153
875.974	0.00154799
876.052	0.00147472
876.130	0.00137968
876.209	0.00121070
876.287	0.00105581
876.365	0.000794956
876.443	0.000500672
876.521	0.000174038
876.599	-0.000166511
876.677	-0.000511894
876.755	-0.000824222
876.834	-0.00116299
876.912	-0.00145778
876.990	-0.00165267
877.068	-0.00189214
877.146	-0.00202930
877.224	-0.00216511
877.302	-0.00225912
877.380	-0.00230764
877.459	-0.00227265
877.537	-0.00221924
877.615	-0.00206865
877.693	-0.00180131
877.771	-0.00151668
877.849	-0.00121077
877.927	-0.000807468
878.005	-0.000441631
878.084	-0.0000282706
878.162	0.000377804
878.240	0.000714501
878.318	0.000990757
878.396	0.00125769
878.474	0.00147919
