01/10/2013	18:48:23	Ver.	4.1	RS 320/100
Optical Delay	558.545646	Delta X		0.078125	Sweeps	1	Scan Rate	100/320
Coordinates	Axis 1	NaN	Axis 2	NaN	Axis 3	NaN	Axis 4	NaN	Axis 5	NaN	Axis 6	0.000000
TX Power	0.000000	RX Power	0.000000

558.546	0.0000688501
558.624	0.0000676714
558.702	0.0000410333
558.780	0.0000124689
558.858	0.0000381570
558.936	0.0000425134
559.014	0.0000297075
559.093	-0.00000621170
559.171	0.0000411401
559.249	0.0000284372
559.327	0.0000328432
559.405	0.0000430170
559.483	0.0000465379
559.561	0.0000451608
559.639	0.0000373102
559.718	0.0000178667
559.796	0.0000699030
559.874	0.0000282770
559.952	0.0000485788
560.030	0.0000223947
560.108	0.0000884576
560.186	0.0000662218
560.264	0.0000616480
560.343	0.0000294557
560.421	0.0000728059
560.499	0.0000535455
560.577	0.0000336862
560.655	0.0000479227
560.733	0.0000572000
560.811	0.0000483041
560.889	0.0000500703
560.968	0.00000871140
561.046	0.0000204034
561.124	0.0000386034
561.202	0.0000648752
561.280	0.0000288568
561.358	0.0000177675
561.436	0.0000509210
561.514	0.0000507455
561.593	0.0000655580
561.671	0.0000413576
561.749	0.0000429140
561.827	0.0000877061
561.905	0.0000521684
561.983	0.0000415712
562.061	0.0000173517
562.139	0.0000354105
562.218	0.0000422464
562.296	0.0000653101
562.374	0.0000625559
562.452	0.0000334764
562.530	0.0000692583
562.608	0.0000469041
562.686	0.0000579668
562.764	0.0000495744
562.843	0.0000314279
562.921	0.0000636697
562.999	0.0000833650
563.077	0.0000457025
563.155	0.000115042
563.233	0.0000588670
563.311	0.0000315691
563.389	0.0000599962
563.468	0.0000965219
563.546	0.0000958276
563.624	0.0000592447
563.702	0.0000433679
563.780	0.0000998026
563.858	0.0000544420
563.936	0.0000407205
564.014	0.0000813394
564.093	0.0000882936
564.171	0.0000524240
564.249	0.0000536028
564.327	0.0000640054
564.405	0.0000697160
564.483	0.0000497614
564.561	0.0000703836
564.639	0.0000648332
564.718	0.0000996347
564.796	0.0000832468
564.874	0.0000171228
564.952	0.0000252138
565.030	0.0000750337
565.108	0.0000508829
565.186	0.0000526262
565.264	0.0000410181
565.343	0.0000257440
565.421	0.0000200716
565.499	0.0000543886
565.577	0.0000595117
565.655	0.0000404153
565.733	0.0000940920
565.811	0.0000586916
565.889	0.0000394655
565.968	0.0000398927
566.046	0.0000465418
566.124	0.0000519052
566.202	0.0000244508
566.280	0.0000521875
566.358	0.0000472818
566.436	0.0000461450
566.514	0.0000753465
566.593	0.0000527940
566.671	0.0000361581
566.749	0.0000329233
566.827	0.0000196710
566.905	0.0000998941
566.983	0.0000546823
567.061	0.0000561891
567.139	0.0000490213
567.218	0.0000143037
567.296	0.0000440546
567.374	0.0000721422
567.452	0.0000325304
567.530	0.0000525537
567.608	0.0000526949
567.686	0.0000759645
567.764	0.0000178209
567.843	0.0000329309
567.921	0.0000315996
567.999	0.0000870309
568.077	0.0000713678
568.155	0.0000816293
568.233	0.0000718218
568.311	0.0000972925
568.389	0.0000661264
568.468	0.0000702615
568.546	0.0000520769
568.624	0.000102744
568.702	0.0000824190
568.780	0.0000851389
568.858	0.0000901247
568.936	0.0000792909
569.014	0.0000677057
569.093	0.0000657945
569.171	0.0000466829
569.249	0.000105136
569.327	0.000104037
569.405	0.0000341936
569.483	0.0000647684
569.561	0.0000623422
569.639	0.0000597406
569.718	0.0000620332
569.796	0.0000304170
569.874	0.0000589510
569.952	0.0000690523
570.030	0.0000367036
570.108	0.0000329538
570.186	-0.0000100073
570.264	0.0000548998
570.343	0.0000587259
570.421	0.0000882517
570.499	0.0000523897
570.577	0.00000930268
570.655	0.0000381532
570.733	0.000135600
570.811	0.0000387407
570.889	0.0000653024
570.968	0.0000776582
571.046	0.0000721574
571.124	0.0000833231
571.202	0.0000727869
571.280	0.0000624986
571.358	0.0000447145
571.436	0.0000562044
571.514	0.0000799165
571.593	0.0000601450
571.671	0.000107504
571.749	0.0000739122
571.827	0.0000636354
571.905	0.000120413
571.983	0.000102149
572.061	0.000103915
572.139	0.0000830255
572.218	0.000106764
572.296	0.000114646
572.374	0.0000945459
572.452	0.0000801569
572.530	0.0000904756
572.608	0.0000827623
572.686	0.000123847
572.764	0.0000810533
572.843	0.0000895181
572.921	0.0000825754
572.999	0.000102625
573.077	0.0000743547
573.155	0.0000493341
573.233	0.0000372682
573.311	0.0000838152
573.389	0.0000481210
573.468	0.0000355135
573.546	0.0000440889
573.624	0.0000585695
573.702	0.0000855051
573.780	0.0000330797
573.858	0.0000562502
573.936	0.0000588899
574.014	0.0000202242
574.093	0.0000437914
574.171	0.0000440508
574.249	0.0000396906
574.327	0.0000231538
574.405	0.0000487924
574.483	0.0000660921
574.561	0.0000288263
574.639	0.0000770212
574.718	0.0000850320
574.796	0.0000842538
574.874	0.0000622469
574.952	0.0000819841
575.030	0.0000629793
575.108	0.000112013
575.186	0.0000687280
575.264	0.0000833002
575.343	0.0000787187
575.421	0.000103762
575.499	0.0000623842
575.577	0.0000755220
575.655	0.0000734239
575.733	0.0000771776
575.811	0.0000683962
575.889	0.0000842996
575.968	0.0000501581
576.046	0.0000873476
576.124	0.0000827547
576.202	0.0000413232
576.280	0.0000901857
576.358	0.0000947595
576.436	0.0000709406
576.514	0.0000894838
576.593	0.0000605226
576.671	0.0000947977
576.749	0.000102213
576.827	0.0000754266
576.905	0.0000531755
576.983	0.000101039
577.061	0.0000823274
577.139	0.0000765596
577.218	0.0000975557
577.296	0.0000804315
577.374	0.0000938020
577.452	0.0000634370
577.530	0.0000816942
577.608	0.0000740915
577.686	0.0000744424
577.764	0.0000332552
577.843	0.0000626474
577.921	-0.00000612777
577.999	0.0000759569
578.077	0.0000499101
578.155	0.0000545412
578.233	0.0000545908
578.311	0.0000321260
578.389	0.0000471521
578.468	0.0000361543
578.546	0.00000800949
578.624	0.0000687471
578.702	0.0000607134
578.780	0.0000529771
578.858	0.0000544763
578.936	0.0000730692
579.014	0.0000742708
579.093	0.0000914064
579.171	0.000110575
579.249	0.0000917307
579.327	0.0000463167
579.405	0.0000520082
579.483	0.0000887705
579.561	0.0000444284
579.639	0.0000217767
579.718	0.0000548425
579.796	0.0000546098
579.874	0.0000377451
579.952	0.0000311113
580.030	0.000107665
580.108	0.0000548731
580.186	0.0000714517
580.264	0.0000596681
580.343	0.0000889803
580.421	0.0000510812
580.499	0.0000556589
580.577	0.0000909372
580.655	0.0000953432
580.733	0.0000606409
580.811	0.0000797754
580.889	0.0000761896
580.968	0.0000840517
581.046	0.0000989290
581.124	0.0000678735
581.202	0.0000959116
581.280	0.0000978990
581.358	0.0000903230
581.436	0.000100844
581.514	0.000104758
581.593	0.000136782
581.671	0.0000715318
581.749	0.0000979067
581.827	0.000129370
581.905	0.0000872903
581.983	0.000151881
582.061	0.0000948320
582.139	0.0000977998
582.218	0.0000946527
582.296	0.000108481
582.374	0.0000864092
582.452	0.0000736375
582.530	0.000106268
582.608	0.000114909
582.686	0.000107199
582.764	0.0000639139
582.843	0.0000885263
582.921	0.0000925508
582.999	0.0000759912
583.077	0.0000457903
583.155	0.000128993
583.233	0.000102206
583.311	0.0000982919
583.389	0.000100291
583.468	0.0000836054
583.546	0.0000873323
583.624	0.0000837122
583.702	0.0000925623
583.780	0.000100768
583.858	0.0000871301
583.936	0.0000727106
584.014	0.0000908189
584.093	0.000101134
584.171	0.0000914751
584.249	0.0000921236
584.327	0.0000915666
584.405	0.0000826898
584.483	0.0000893617
584.561	0.0000907465
584.639	0.0000900255
584.718	0.0000857149
584.796	0.0000608926
584.874	0.0000499483
584.952	0.0000891748
585.030	0.0000733591
585.108	0.0000582071
585.186	0.0000632654
585.264	0.0000711313
585.343	0.0000850130
585.421	0.0000848680
585.499	0.0000892015
585.577	0.0000774332
585.655	0.0000785585
585.733	0.0000638948
585.811	0.0000650583
585.889	0.0000706392
585.968	0.0000897432
586.046	0.0000967279
586.124	0.0000276514
586.202	0.0000680299
586.280	0.000104788
586.358	0.0000982271
586.436	0.0000943018
586.514	0.000107935
586.593	0.0000881258
586.671	0.0000998598
586.749	0.000111712
586.827	0.0000984560
586.905	0.000100470
586.983	0.0000913072
587.061	0.000113589
587.139	0.000116145
587.218	0.0000820909
587.296	0.0000721384
587.374	0.0000888086
587.452	0.0000794740
587.530	0.0000998293
587.608	0.000110411
587.686	0.0000489908
587.764	0.0000762392
587.843	0.0000785471
587.921	0.0000894457
587.999	0.0000635095
588.077	0.0000883012
588.155	0.000124480
588.233	0.0000565858
588.311	0.0000955072
588.389	0.0000689989
588.468	0.0000713602
588.546	0.0000702119
588.624	0.0000562006
588.702	0.000121939
588.780	0.0000792604
588.858	0.0000479952
588.936	0.0000316988
589.014	0.0000233064
589.093	0.0000598436
589.171	0.0000744386
589.249	0.0000979639
589.327	0.0000619531
589.405	0.0000521494
589.483	0.0000364671
589.561	0.0000806337
589.639	0.0000985704
589.718	0.0000416208
589.796	0.0000266481
589.874	0.0000875421
589.952	0.0000371080
590.030	0.0000540338
590.108	0.0000413690
590.186	0.0000591226
590.264	0.0000718904
590.343	0.0000448938
590.421	0.0000889764
590.499	0.0000635973
590.577	0.0000808321
590.655	0.0000513864
590.733	0.0000393701
590.811	0.0000685831
590.889	0.0000551706
590.968	0.0000634103
591.046	0.0000418344
591.124	0.000105486
591.202	0.0000613390
591.280	0.0000793176
591.358	0.0000539842
591.436	0.0000432420
591.514	0.0000753847
591.593	0.0000992838
591.671	0.000125567
591.749	0.0000988794
591.827	0.000117919
591.905	0.000100478
591.983	0.000107592
592.061	0.000121680
592.139	0.000100680
592.218	0.0000861574
592.296	0.0000879541
592.374	0.000135783
592.452	0.0000933710
592.530	0.0000922418
592.608	0.000111235
592.686	0.000128577
592.764	0.0000799280
592.843	0.000129897
592.921	0.000149386
592.999	0.0000790811
593.077	0.0000701624
593.155	0.000112860
593.233	0.0000799966
593.311	0.0000901247
593.389	0.000116824
593.468	0.000124499
593.546	0.000112795
593.624	0.0000811105
593.702	0.000110735
593.780	0.000116965
593.858	0.0000818964
593.936	0.000149596
594.014	0.000110430
594.093	0.000109629
594.171	0.0000967699
594.249	0.0000956560
594.327	0.000133437
594.405	0.0000916086
594.483	0.0000951524
594.561	0.000101229
594.639	0.0000795274
594.718	0.000100176
594.796	0.000110755
594.874	0.0000657831
594.952	0.000110774
595.030	0.0000848795
595.108	0.0000577760
595.186	0.0000844560
595.264	0.0000789362
595.343	0.000116171
595.421	0.0000996233
595.499	0.0000812479
595.577	0.0000596338
595.655	0.0000641847
595.733	0.0000896211
595.811	0.000106173
595.889	0.0000394693
595.968	0.0000546709
596.046	0.0000803514
596.124	0.0000460802
596.202	0.0000803667
596.280	0.0000512491
596.358	0.0000889307
596.436	0.0000527673
596.514	0.000103938
596.593	0.0000591913
596.671	0.0000736757
596.749	0.0000423914
596.827	0.0000276285
596.905	0.0000834032
596.983	0.0000533472
597.061	0.0000376840
597.139	0.0000678888
597.218	0.0000336824
597.296	0.0000928980
597.374	0.0000687204
597.452	0.0000639368
597.530	0.0000577226
597.608	0.0000652795
597.686	0.0000819231
597.764	0.0000735117
597.843	0.0000326639
597.921	0.0000853563
597.999	0.0000978494
598.077	0.0000190340
598.155	0.0000755792
598.233	0.0000727754
598.311	0.0000675455
598.389	0.0000475984
598.468	0.000108515
598.546	0.0000393587
598.624	0.0000837160
598.702	0.0000602136
598.780	0.0000649896
598.858	0.0000906015
598.936	0.0000989099
599.014	0.0000914407
599.093	0.000103797
599.171	0.0000793253
599.249	0.0000904871
599.327	0.0000667368
599.405	0.0000878511
599.483	0.000103015
599.561	0.0000975748
599.639	0.000105418
599.718	0.0000360551
599.796	0.0000728822
599.874	0.0000946451
599.952	0.0000884805
600.030	0.000120055
600.108	0.0000778146
600.186	0.0000667635
600.264	0.0000989519
600.343	0.000103697
600.421	0.000106219
600.499	0.0000923448
600.577	0.0000814348
600.655	0.0000960985
600.733	0.000107104
600.811	0.0000987764
600.889	0.0000735536
600.968	0.0000565363
601.046	0.0000960184
601.124	0.000124995
601.202	0.0000896440
601.280	0.000114512
601.358	0.000102641
601.436	0.0000858331
601.514	0.000109374
601.593	0.0000783182
601.671	0.0000944391
601.749	0.0000680719
601.827	0.0000854173
601.905	0.0000759988
601.983	0.0000636888
602.061	0.0000939203
602.139	0.0000750795
602.218	0.0000711542
602.296	0.0000605722
602.374	0.0000837236
602.452	0.0000831438
602.530	0.000129454
602.608	0.0000679880
602.686	0.0000694795
602.764	0.000132525
602.843	0.0000850397
602.921	0.0000845323
602.999	0.000110671
603.077	0.000106017
603.155	0.000109324
603.233	0.0000913797
603.311	0.000118449
603.389	0.0000917116
603.468	0.0000766512
603.546	0.0000843835
603.624	0.0000648790
603.702	0.000119654
603.780	0.0000760065
603.858	0.0000918871
603.936	0.0000841547
604.014	0.0000281511
604.093	0.0000936609
604.171	0.0000554643
604.249	0.0000468698
604.327	0.0000525346
604.405	0.0000751901
604.483	0.0000974756
604.561	0.0000769220
604.639	0.0000418878
604.718	0.0000808130
604.796	0.0000839143
604.874	0.0000188280
604.952	0.0000497881
605.030	0.0000546632
605.108	0.0000315042
605.186	0.0000176454
605.264	0.0000360399
605.343	0.0000492502
605.421	0.0000207468
605.499	0.0000219827
605.577	-0.0000210089
605.655	0.0000102678
605.733	0.0000273920
605.811	0.00000322968
605.889	-0.0000110678
605.968	-0.00000606292
606.046	0.00000750214
606.124	-0.00000325912
606.202	0.0000327478
606.280	0.0000445276
606.358	0.0000578523
606.436	0.0000626779
606.514	0.0000677553
606.593	0.0000783830
606.671	0.0000624490
606.749	0.0000972047
606.827	0.000109545
606.905	0.0000974870
606.983	0.000101393
607.061	0.000114482
607.139	0.0000776086
607.218	0.000146189
607.296	0.000113547
607.374	0.000129912
607.452	0.000149806
607.530	0.000113741
607.608	0.000102431
607.686	0.000124911
607.764	0.000159201
607.843	0.000152201
607.921	0.000109671
607.999	0.000119593
608.077	0.000147643
608.155	0.000116484
608.233	0.000154650
608.311	0.000148497
608.389	0.0000849939
608.468	0.000150515
608.546	0.000139735
608.624	0.0000954691
608.702	0.000120799
608.780	0.000112826
608.858	0.000122378
608.936	0.000105559
609.014	0.000135954
609.093	0.000119399
609.171	0.000106631
609.249	0.0000923105
609.327	0.000104262
609.405	0.000129149
609.483	0.000123663
609.561	0.0000792337
609.639	0.000105494
609.718	0.000131136
609.796	0.0000968652
609.874	0.000107684
609.952	0.000126654
610.030	0.000116164
610.108	0.0000893922
610.186	0.0000935274
610.264	0.0000659204
610.343	0.0000974985
610.421	0.0000728746
610.499	0.0000662943
610.577	0.000107756
610.655	0.0000266061
610.733	0.0000590768
610.811	0.0000589357
610.889	0.0000675798
610.968	0.0000536028
611.046	0.0000465761
611.124	0.0000498605
611.202	0.0000516992
611.280	0.0000546671
611.358	0.0000401102
611.436	0.0000146928
611.514	0.0000161615
611.593	-0.00000341171
611.671	0.0000539995
611.749	0.0000394502
611.827	0.00000956589
611.905	0.00000658661
611.983	0.0000309930
612.061	0.0000201021
612.139	0.0000210558
612.218	0.0000626131
612.296	0.0000539728
612.374	0.0000533968
612.452	0.000000292362
612.530	0.0000232187
612.608	0.0000342317
612.686	0.0000505891
612.764	0.0000880991
612.843	0.0000642610
612.921	0.0000770250
612.999	0.0000468126
613.077	0.0000360475
613.155	0.0000576692
613.233	0.0000458360
613.311	0.0000507761
613.389	0.0000285516
613.468	0.0000363145
613.546	0.0000783563
613.624	0.000102431
613.702	0.0000584894
613.780	0.0000708337
613.858	0.0000791116
613.936	0.0000491052
614.014	0.0000239969
614.093	0.0000817819
614.171	0.0000477358
614.249	0.0000614877
614.327	0.0000679765
614.405	0.0000589090
614.483	0.0000199457
614.561	0.0000696169
614.639	0.0000505434
614.718	0.0000978494
614.796	0.0000569139
614.874	0.0000626093
614.952	0.000100947
615.030	0.0000704256
615.108	0.0000732332
615.186	0.0000645738
615.264	0.0000923029
615.343	0.0000825716
615.421	0.0000600801
615.499	0.0000826440
615.577	0.0000858942
615.655	0.0000779176
615.733	0.0000888582
615.811	0.0000758997
615.889	0.0000762125
615.968	0.0000653024
616.046	0.0000906091
616.124	0.0000856729
616.202	0.0000904375
616.280	0.0000974527
616.358	0.0000925699
616.436	0.000117907
616.514	0.0000870309
616.593	0.0000844865
616.671	0.000101916
616.749	0.0000907312
616.827	0.0000695558
616.905	0.0000867181
616.983	0.0000861154
617.061	0.000108359
617.139	0.000121726
617.218	0.000105059
617.296	0.000125163
617.374	0.000123488
617.452	0.0000839716
617.530	0.000105727
617.608	0.0000929552
617.686	0.0000893160
617.764	0.0000897012
617.843	0.0000974641
617.921	0.0000851999
617.999	0.000114428
618.077	0.0000651460
618.155	0.000134795
618.233	0.000116213
618.311	0.0000470148
618.389	0.000106036
618.468	0.000124537
618.546	0.000112601
618.624	0.0000928217
618.702	0.0000734087
618.780	0.000112116
618.858	0.0000985094
618.936	0.000109717
619.014	0.000109423
619.093	0.0000893007
619.171	0.0000534540
619.249	0.0000728098
619.327	0.000114344
619.405	0.000108393
619.483	0.0000971323
619.561	0.0000972314
619.639	0.000128096
619.718	0.0000809045
619.796	0.0000818086
619.874	0.0000263811
619.952	0.0000344148
620.030	0.0000788561
620.108	0.0000750490
620.186	0.0000846697
620.264	0.0000611597
620.343	0.0000658899
620.421	0.0000882135
620.499	0.0000937448
620.577	0.0000834299
620.655	0.0000642610
620.733	0.0000933061
620.811	0.0000651384
620.889	0.0000572725
620.968	0.000135611
621.046	0.0000629717
621.124	0.0000594583
621.202	0.0000744768
621.280	0.0000892969
621.358	0.0000664392
621.436	0.0000556017
621.514	0.0000712419
621.593	0.0000726915
621.671	0.0000703531
621.749	0.0000679117
621.827	0.0000629984
621.905	0.0000789858
621.983	0.0000690523
622.061	0.0000120721
622.139	0.0000604540
622.218	0.0000784555
622.296	0.0000391908
622.374	0.0000429865
622.452	0.0000651193
622.530	0.0000490900
622.608	0.0000248285
622.686	0.0000435854
622.764	0.0000574670
622.843	0.0000517107
622.921	0.0000806223
622.999	0.0000336099
623.077	0.0000631624
623.155	0.0000454736
623.233	0.0000803018
623.311	0.0000883775
623.389	0.0000579095
623.468	0.0000427156
623.546	0.0000736757
623.624	0.0000884424
623.702	0.0000824190
623.780	0.0000328432
623.858	0.0000603815
623.936	0.0000672899
624.014	0.0000689684
624.093	0.0000976778
624.171	0.0000807901
624.249	0.0000675607
624.327	0.0000666872
624.405	0.0000905748
624.483	0.0000607286
624.561	0.0000298334
624.639	0.0000639101
624.718	0.000111174
624.796	0.0000786615
624.874	0.0000539270
624.952	0.0000895410
625.030	0.0000669809
625.108	0.0000698496
625.186	0.000105666
625.264	0.000109301
625.343	0.0000889345
625.421	0.0000680910
625.499	0.0000269685
625.577	0.0000939088
625.655	0.0000949579
625.733	0.0000594583
625.811	0.0000876451
625.889	0.0000907732
625.968	0.0000746523
626.046	0.0000749307
626.124	0.000104815
626.202	0.0000890337
626.280	0.000101939
626.358	0.0000942636
626.436	0.0000932642
626.514	0.0000651727
626.593	0.0000581117
626.671	0.000120989
626.749	0.000104102
626.827	0.0000851770
626.905	0.000106783
626.983	0.0000620142
627.061	0.0000782915
627.139	0.0000901399
627.218	0.0000964685
627.296	0.0000746027
627.374	0.000106326
627.452	0.0000945497
627.530	0.000120242
627.608	0.000117583
627.686	0.0000854173
627.764	0.0000944734
627.843	0.000121996
627.921	0.000103880
627.999	0.000119689
628.077	0.0000801035
628.155	0.000130244
628.233	0.0000782991
628.311	0.0000788980
628.389	0.000123313
628.468	0.0000720049
628.546	0.0000359750
628.624	0.000115157
628.702	0.0000856920
628.780	0.0000566126
628.858	0.0000813470
628.936	0.000106848
629.014	0.0000341745
629.093	0.0000803590
629.171	0.000115817
629.249	0.0000736871
629.327	0.000115786
629.405	0.000112921
629.483	0.0000851579
629.561	0.000114543
629.639	0.0000767275
629.718	0.000103301
629.796	0.0000837427
629.874	0.0000852800
629.952	0.000105067
630.030	0.0000853716
630.108	0.0000908533
630.186	0.000104254
630.264	0.000121119
630.343	0.000109114
630.421	0.0000418955
630.499	0.0000722337
630.577	0.000131690
630.655	0.0000604883
630.733	0.0000647760
630.811	0.000122840
630.889	0.0000737749
630.968	0.0000840746
631.046	0.0000954538
631.124	0.0000801530
631.202	0.0000744386
631.280	0.0000828195
631.358	0.000107222
631.436	0.0000726686
631.514	0.0000852113
631.593	0.0000796838
631.671	0.0000958620
631.749	0.0000709291
631.827	0.000105147
631.905	0.000146170
631.983	0.0000659280
632.061	0.0000650201
632.139	0.0000909677
632.218	0.0000776582
632.296	0.0000529771
632.374	0.0000871606
632.452	0.0000801225
632.530	0.0000931459
632.608	0.0000802637
632.686	0.000100340
632.764	0.0000852304
632.843	0.0000392137
632.921	0.0000321527
632.999	0.0000764528
633.077	0.0000584589
633.155	0.0000481973
633.233	0.0000503221
633.311	0.0000457826
633.389	0.0000196138
633.468	0.0000744501
633.546	0.0000443788
633.624	0.0000323358
633.702	0.0000345636
633.780	0.0000428262
633.858	0.0000503946
633.936	0.0000605608
634.014	0.0000197702
634.093	0.0000526567
634.171	0.0000719820
634.249	0.0000817896
634.327	0.0000199915
634.405	0.0000359293
634.483	0.0000880571
634.561	0.0000668016
634.639	0.0000503870
634.718	0.0000676141
634.796	0.0000909601
634.874	0.0000575166
634.952	0.0000552354
635.030	0.0000993257
635.108	0.0000852457
635.186	0.0000656648
635.264	0.0000457788
635.343	0.0000646043
635.421	0.0000584245
635.499	0.0000584207
635.577	0.0000918489
635.655	0.0000585085
635.733	0.0000444284
635.811	0.0000965410
635.889	0.0000502458
635.968	0.0000384660
636.046	0.0000510889
636.124	0.0000629984
636.202	0.0000797411
636.280	0.0000577226
636.358	0.0000169740
636.436	0.0000536867
636.514	0.0000470262
636.593	0.0000509401
636.671	0.0000595689
636.749	0.0000533090
636.827	0.0000215135
636.905	0.0000687662
636.983	0.0000523439
637.061	0.0000690981
637.139	0.0000357729
637.218	0.0000544115
637.296	0.0000685182
637.374	0.0000487848
637.452	0.0000589052
637.530	0.0000454889
637.608	0.0000666795
637.686	0.0000868364
637.764	0.0000553728
637.843	0.0000542398
637.921	0.0000384966
637.999	0.0000751711
638.077	0.0000708070
638.155	0.0000686479
638.233	0.0000669695
638.311	0.0000837503
638.389	0.0000538812
638.468	0.000118876
638.546	0.000103949
638.624	0.0000963960
638.702	0.000109610
638.780	0.0000968919
638.858	0.0000954805
638.936	0.000125804
639.014	0.000100482
639.093	0.0000869280
639.171	0.0000883203
639.249	0.000125655
639.327	0.000100134
639.405	0.000103400
639.483	0.000147200
639.561	0.0000933977
639.639	0.0000804010
639.718	0.000114077
639.796	0.000102809
639.874	0.000131587
639.952	0.000112273
640.030	0.0000926996
640.108	0.000128203
640.186	0.0000731378
640.264	0.000107684
640.343	0.000128882
640.421	0.0000794778
640.499	0.000114211
640.577	0.0000987573
640.655	0.0000855470
640.733	0.0000897623
640.811	0.0000838686
640.889	0.0000619035
640.968	0.000120169
641.046	0.0000830255
641.124	0.0000976015
641.202	0.000116747
641.280	0.0000744997
641.358	0.0000703073
641.436	0.0000953546
641.514	0.000106257
641.593	0.0000765749
641.671	0.0000831323
641.749	0.0000800310
641.827	0.0000470033
641.905	0.0000761858
641.983	0.0000809427
642.061	0.000102305
642.139	0.0000903459
642.218	0.0000991426
642.296	0.0000830904
642.374	0.0000979906
642.452	0.0000991159
642.530	0.000104399
642.608	0.0000627695
642.686	0.0000844141
642.764	0.0000809656
642.843	0.000105612
642.921	0.0000961557
642.999	0.000138590
643.077	0.0000908800
643.155	0.0000707422
643.233	0.000110865
643.311	0.0000934625
643.389	0.0000847116
643.468	0.0000454889
643.546	0.000108061
643.624	0.000103446
643.702	0.0000198846
643.780	0.0000496812
643.858	0.0000950494
643.936	0.0000428453
644.014	0.0000925699
644.093	0.0000640054
644.171	0.0000379205
644.249	0.0000447794
644.327	0.000100157
644.405	0.0000553804
644.483	0.0000572611
644.561	0.0000725465
644.639	0.0000835748
644.718	0.0000809770
644.796	0.0000816179
644.874	0.0000977312
644.952	0.0000572725
645.030	0.0000995699
645.108	0.0000471140
645.186	0.0000689722
645.264	0.000101965
645.343	0.0000866495
645.421	0.0000910936
645.499	0.0000773302
645.577	0.0000723482
645.655	0.0000712610
645.733	0.0000886942
645.811	0.0000875230
645.889	0.0000898920
645.968	0.000111106
646.046	0.0000931726
646.124	0.0000815988
646.202	0.0000521303
646.280	0.0000816293
646.358	0.000101500
646.436	0.0000707765
646.514	0.0000570398
646.593	0.0000669160
646.671	0.0000719858
646.749	0.0000727640
646.827	0.0000946375
646.905	0.0000475526
646.983	0.0000861841
647.061	0.000100939
647.139	0.0000824152
647.218	0.0000314394
647.296	0.0000687776
647.374	0.0000735460
647.452	0.0000728288
647.530	0.0000891519
647.608	0.0000422540
647.686	0.0000639253
647.764	0.0000682169
647.843	0.0000627123
647.921	0.000116618
647.999	0.0000616022
648.077	0.0000699869
648.155	0.0000799509
648.233	0.0000975061
648.311	0.000100348
648.389	0.0000756784
648.468	0.0000804124
648.546	0.000108439
648.624	0.0000757585
648.702	0.0000809045
648.780	0.000120631
648.858	0.000110972
648.936	0.000112990
649.014	0.000145705
649.093	0.000140826
649.171	0.000127516
649.249	0.000135535
649.327	0.000142729
649.405	0.000142333
649.483	0.000129515
649.561	0.000163020
649.639	0.000168120
649.718	0.000154017
649.796	0.000160071
649.874	0.000175646
649.952	0.000182875
650.030	0.000172759
650.108	0.000193144
650.186	0.000172545
650.264	0.000171309
650.343	0.000176589
650.421	0.000205153
650.499	0.000210288
650.577	0.000220740
650.655	0.000240054
650.733	0.000233786
650.811	0.000259471
650.889	0.000235434
650.968	0.000301077
651.046	0.000286761
651.124	0.000288783
651.202	0.000285990
651.280	0.000286383
651.358	0.000320059
651.436	0.000360400
651.514	0.000390936
651.593	0.000389945
651.671	0.000379080
651.749	0.000383936
651.827	0.000459891
651.905	0.000430953
651.983	0.000450762
652.061	0.000503752
652.139	0.000541628
652.218	0.000553526
652.296	0.000549365
652.374	0.000527640
652.452	0.000572787
652.530	0.000585982
652.608	0.000534941
652.686	0.000479151
652.764	0.000399901
652.843	0.000264231
652.921	0.0000729128
652.999	-0.000117784
653.077	-0.000399057
653.155	-0.000803148
653.233	-0.00117800
653.311	-0.00160760
653.389	-0.00202474
653.468	-0.00233907
653.546	-0.00256294
653.624	-0.00271570
653.702	-0.00266538
653.780	-0.00249928
653.858	-0.00213713
653.936	-0.00169313
654.014	-0.00124382
654.093	-0.000732698
654.171	-0.000301500
654.249	0.0000173364
654.327	0.000242858
654.405	0.000447344
654.483	0.000598395
654.561	0.000665682
654.639	0.000721224
654.718	0.000760333
654.796	0.000739546
654.874	0.000721087
654.952	0.000706736
655.030	0.000651267
655.108	0.000554770
655.186	0.000532355
655.264	0.000488753
655.343	0.000477877
655.421	0.000427680
655.499	0.000418917
655.577	0.000360537
655.655	0.000326762
655.733	0.000304392
655.811	0.000238822
655.889	0.000251219
655.968	0.000232832
656.046	0.000215586
656.124	0.000265105
656.202	0.000304621
656.280	0.000217215
656.358	0.000243910
656.436	0.000236193
656.514	0.000218722
656.593	0.000225001
656.671	0.000157374
656.749	0.000230444
656.827	0.000242980
656.905	0.000175551
656.983	0.000200980
657.061	0.000231860
657.139	0.000219134
657.218	0.000153262
657.296	0.000197634
657.374	0.000215079
657.452	0.000222746
657.530	0.000215769
657.608	0.000234660
657.686	0.000180628
657.764	0.000199336
657.843	0.000237383
657.921	0.000246398
657.999	0.000225756
658.077	0.000237414
658.155	0.000205542
658.233	0.000217566
658.311	0.000223010
658.389	0.000238703
658.468	0.000236300
658.546	0.000235392
658.624	0.000266249
658.702	0.000284499
658.780	0.000294871
658.858	0.000270632
658.936	0.000247569
659.014	0.000231631
659.093	0.000258280
659.171	0.000279212
659.249	0.000228694
659.327	0.000226801
659.405	0.000175723
659.483	0.000216311
659.561	0.000171446
659.639	0.000110362
659.718	0.000200633
659.796	0.000167796
659.874	0.000153761
659.952	0.000145106
660.030	0.000152079
660.108	0.000165835
660.186	0.000127150
660.264	0.000156428
660.343	0.000153361
660.421	0.000144553
660.499	0.000129874
660.577	0.000123076
660.655	0.000105574
660.733	0.0000958124
660.811	0.0000622926
660.889	0.000136172
660.968	0.0000954652
661.046	0.0000971170
661.124	0.0000814958
661.202	0.0000582071
661.280	0.0000695482
661.358	0.0000494447
661.436	0.0000305772
661.514	0.0000651270
661.593	0.0000554414
661.671	0.0000226541
661.749	0.0000233522
661.827	0.0000342966
661.905	0.0000441499
661.983	0.0000506006
662.061	0.0000320688
662.139	0.0000433565
662.218	0.0000217271
662.296	0.0000281549
662.374	0.0000602213
662.452	0.0000131593
662.530	0.0000500665
662.608	0.0000222650
662.686	0.0000733476
662.764	0.0000852304
662.843	0.0000369249
662.921	0.0000627962
662.999	0.0000413652
663.077	0.0000636659
663.155	-0.00000328201
663.233	0.0000232263
663.311	-0.00000126785
663.389	0.0000254388
663.468	0.0000343042
663.546	-0.0000123190
663.624	0.00000112015
663.702	0.00000828034
663.780	0.0000139032
663.858	0.0000416055
663.936	0.0000164705
664.014	0.0000474153
664.093	0.0000756441
664.171	0.0000140329
664.249	0.0000700746
664.327	0.0000564981
664.405	0.0000712305
664.483	0.0000496622
664.561	0.0000522218
664.639	0.0000549684
664.718	0.0000649439
664.796	0.00000966126
664.874	0.0000639368
664.952	0.0000394083
665.030	-0.00000639099
665.108	0.0000277887
665.186	0.0000198999
665.264	0.0000422159
665.343	0.0000308786
665.421	0.0000126405
665.499	0.0000530916
665.577	0.0000178972
665.655	0.0000629945
665.733	0.0000778528
665.811	0.0000771127
665.889	0.0000534425
665.968	0.0000679918
666.046	0.0000974527
666.124	0.0000666567
666.202	0.000124899
666.280	0.0000809694
666.358	0.0000866380
666.436	0.000108569
666.514	0.0000939508
666.593	0.000107512
666.671	0.000130137
666.749	0.0000926843
666.827	0.000103663
666.905	0.0000641657
666.983	0.0000703798
667.061	0.000118422
667.139	0.0000959459
667.218	0.000103171
667.296	0.000127745
667.374	0.000114729
667.452	0.0000876260
667.530	0.000102759
667.608	0.0000992952
667.686	0.000119673
667.764	0.0000985780
667.843	0.0000840936
667.921	0.0000698496
667.999	0.000110945
668.077	0.0000918832
668.155	0.0000735307
668.233	0.000100462
668.311	0.0000766969
668.389	-0.00000164169
668.468	0.0000652757
668.546	0.0000467706
668.624	-0.00000160736
668.702	0.0000499445
668.780	0.00000167710
668.858	0.0000316606
668.936	0.0000312982
669.014	0.0000345979
669.093	0.0000409608
669.171	0.0000171915
669.249	0.0000554948
669.327	0.0000625711
669.405	0.0000351511
669.483	0.0000514780
669.561	0.0000707651
669.639	0.0000723215
669.718	0.0000699831
669.796	0.0000836244
669.874	0.0000768648
669.952	0.0000955644
670.030	0.0000499559
670.108	0.0000860696
670.186	0.0000694872
670.264	0.0000601373
670.343	0.0000662332
670.421	0.0000440012
670.499	0.0000242868
670.577	0.0000300470
670.655	0.0000578066
670.733	0.000123099
670.811	0.0000436693
670.889	0.0000985399
670.968	0.0000701433
671.046	0.0000976358
671.124	0.0000654741
671.202	0.0000807710
671.280	0.000113707
671.358	0.0000628687
671.436	0.0000505434
671.514	0.0000900598
671.593	0.000111136
671.671	0.0000833231
671.749	0.0000862642
671.827	0.0000684877
671.905	0.0000757623
671.983	0.0000803629
672.061	0.0000611101
672.139	0.0000801988
672.218	0.0000757890
672.296	0.0000368600
672.374	0.0000678468
672.452	0.000100409
672.530	0.0000455003
672.608	0.0000747057
672.686	0.0000954004
672.764	0.0000674272
672.843	0.0000602747
672.921	0.000127528
672.999	0.0000716539
673.077	0.0000862566
673.155	0.000125529
673.233	0.0000766359
673.311	0.0000911852
673.389	0.0000982729
673.468	0.000134646
673.546	0.000113051
673.624	0.000149985
673.702	0.000110396
673.780	0.0000999818
673.858	0.0000482278
673.936	0.0000913911
674.014	0.0000685640
674.093	0.0000688768
674.171	0.0000725351
674.249	0.0000558382
674.327	0.0000485216
674.405	0.0000849519
674.483	0.0000730081
674.561	0.0000591150
674.639	0.0000759149
674.718	0.0000618921
674.796	0.0000516840
674.874	0.0000704713
674.952	0.0000887933
675.030	0.0000719782
675.108	0.0000497652
675.186	0.000101283
675.264	0.0000639635
675.343	0.0000629297
675.421	0.0000862566
675.499	0.0000534311
675.577	0.0000565248
675.655	0.0000211626
675.733	0.0000859285
675.811	0.0000385500
675.889	0.0000423685
675.968	0.0000544305
676.046	0.0000414720
676.124	0.0000408121
676.202	0.0000410829
676.280	0.0000366731
676.358	0.0000373903
676.436	0.0000483652
676.514	0.0000634599
676.593	0.000114329
676.671	0.0000535570
676.749	0.0000439211
676.827	0.0000354868
676.905	0.0000596834
676.983	0.0000412508
677.061	0.0000794130
677.139	0.0000435663
677.218	0.0000606371
677.296	0.0000976511
677.374	0.0000623575
677.452	0.0000574709
677.530	0.0000811144
677.608	0.0000572687
677.686	0.0000510660
677.764	0.0000324236
677.843	0.0000744157
677.921	0.0000197855
677.999	0.0000646501
678.077	0.0000807939
678.155	0.0000692087
678.233	0.0000669733
678.311	0.0000774637
678.389	0.0000695863
678.468	0.000115447
678.546	0.000100131
678.624	0.0000865541
678.702	0.0000974336
678.780	0.0000894151
678.858	0.000107325
678.936	0.000108107
679.014	0.0000667749
679.093	0.000110957
679.171	0.000141699
679.249	0.0000854517
679.327	0.0000758196
679.405	0.000125189
679.483	0.000112826
679.561	0.0000680643
679.639	0.000128531
679.718	0.0000928484
679.796	0.0000894800
679.874	0.0000870309
679.952	0.000140933
680.030	0.000152739
680.108	0.000136828
680.186	0.000115519
680.264	0.000144671
680.343	0.0000864092
680.421	0.000139151
680.499	0.000137122
680.577	0.0000876604
680.655	0.000141955
680.733	0.000108939
680.811	0.0000950723
680.889	0.000103415
680.968	0.000119452
681.046	0.0000909067
681.124	0.0000878664
681.202	0.000107798
681.280	0.0000735040
681.358	0.0000567918
681.436	0.000106646
681.514	0.0000593324
681.593	0.0000341211
681.671	0.0000763651
681.749	0.0000822511
681.827	0.0000777727
681.905	0.0000275903
681.983	0.0000528360
682.061	0.0000683389
682.139	0.0000611635
682.218	0.0000934854
682.296	0.0000790811
682.374	0.0000354829
682.452	0.0000506273
682.530	0.0000675073
682.608	0.0000618883
682.686	0.0000667444
682.764	0.0000700594
682.843	0.0000630212
682.921	0.0000545030
682.999	0.0000429254
683.077	0.0000359674
683.155	0.0000173364
683.233	0.0000648447
683.311	0.0000398698
683.389	-0.0000191054
683.468	0.0000114847
683.546	0.0000350748
683.624	0.0000408540
683.702	0.0000667024
683.780	0.0000884996
683.858	0.0000140176
683.936	0.0000810915
684.014	0.0000872446
684.093	0.0000266672
684.171	0.000103324
684.249	0.0000594698
684.327	0.0000484567
684.405	0.0000597673
684.483	0.0000509020
684.561	0.0000214563
684.639	0.0000474077
684.718	0.0000481783
684.796	0.0000455080
684.874	0.0000542665
684.952	0.0000214220
685.030	0.0000372224
685.108	0.0000408884
685.186	0.0000360819
685.264	0.0000473085
685.343	0.0000596681
685.421	0.0000471025
685.499	0.0000493646
685.577	0.0000869699
685.655	0.0000810953
685.733	0.0000813699
685.811	0.0000468660
685.889	0.0000972086
685.968	0.0000566774
686.046	0.0000704675
686.124	0.0000676942
686.202	0.000102366
686.280	0.0000702997
686.358	0.0000695444
686.436	0.0000649896
686.514	0.0000652185
686.593	0.0000837923
686.671	0.0000621591
686.749	0.0000756364
686.827	0.0000688234
686.905	0.0000786844
686.983	0.0000763040
687.061	0.000150557
687.139	0.000111792
687.218	0.0000597139
687.296	0.0000811067
687.374	0.000102366
687.452	0.0000877252
687.530	0.0000937486
687.608	0.0000839944
687.686	0.000107916
687.764	0.000104388
687.843	0.0000938783
687.921	0.0000640932
687.999	0.000119471
688.077	0.0000706316
688.155	0.000103217
688.233	0.0000817438
688.311	0.0000575014
688.389	0.0000538736
688.468	0.0000568338
688.546	0.0000396448
688.624	0.0000527216
688.702	0.0000498033
688.780	0.0000134569
688.858	0.00000842148
688.936	0.0000458742
689.014	0.00000931794
689.093	0.0000257784
689.171	0.0000480066
689.249	0.0000473047
689.327	0.0000118013
689.405	0.0000689951
689.483	0.000103167
689.561	0.0000610986
689.639	0.0000327631
689.718	0.0000883127
689.796	0.0000746751
689.874	0.0000482393
689.952	0.0000608659
690.030	0.0000601869
690.108	0.0000133539
690.186	0.0000574098
690.264	0.0000863672
690.343	0.0000297113
690.421	0.0000279070
690.499	0.0000448518
690.577	0.0000336328
690.655	0.0000206018
690.733	0.0000522867
690.811	0.0000676141
690.889	0.0000731455
690.968	0.0000446802
691.046	0.0000588556
691.124	0.0000526415
691.202	0.0000636202
691.280	0.0000500475
691.358	0.0000332819
691.436	0.0000190759
691.514	0.0000343767
691.593	0.0000676065
691.671	0.0000279642
691.749	0.0000382181
691.827	0.0000418649
691.905	0.0000198427
691.983	0.0000338388
692.061	0.0000123811
692.139	-0.0000102248
692.218	0.00000684983
692.296	-0.0000334830
692.374	0.0000739961
692.452	0.0000452905
692.530	0.00000420624
692.608	0.0000142313
692.686	0.0000276590
692.764	-0.00000748581
692.843	0.0000370660
692.921	0.0000277200
692.999	0.00000300080
693.077	0.0000328966
693.155	0.0000418955
693.233	0.0000532251
693.311	0.0000542551
693.389	0.00000255066
693.468	0.0000331140
693.546	0.00000855118
693.624	0.0000368562
693.702	0.0000500742
693.780	0.00000818497
693.858	0.0000532137
693.936	0.0000291544
694.014	0.0000259424
694.093	-0.0000122618
694.171	0.00000893265
694.249	-0.0000242934
694.327	0.0000245767
694.405	0.0000183664
694.483	-0.00000822204
694.561	0.0000186411
694.639	0.0000147195
694.718	0.0000229517
694.796	0.0000231920
694.874	-0.0000149207
694.952	0.0000265413
695.030	0.0000339952
695.108	0.0000170618
695.186	0.0000206857
695.264	0.00000552994
695.343	-0.0000127692
695.421	-0.0000185294
695.499	-0.0000379576
695.577	-0.0000177550
695.655	-0.0000198836
695.733	0.00000530106
695.811	-0.00000636810
695.889	0.0000197740
695.968	0.00000713974
696.046	-0.0000227408
696.124	-0.00000651306
696.202	0.0000146089
696.280	-0.00000336593
696.358	-0.0000114455
696.436	-0.0000149168
696.514	-0.0000166411
696.593	-0.0000157408
696.671	0.000000406803
696.749	0.0000430627
696.827	0.00000392777
696.905	-0.0000323576
696.983	-0.00000573486
697.061	-0.0000420927
697.139	-0.0000587553
697.218	-0.0000395445
697.296	-0.0000413870
697.374	-0.0000386137
697.452	-0.0000322317
697.530	-0.0000121550
697.608	-0.0000587401
697.686	-0.0000430884
697.764	-0.0000258040
697.843	-0.0000700697
697.921	-0.0000344710
697.999	-0.0000835432
698.077	-0.0000535406
698.155	-0.0000563940
698.233	-0.0000350203
698.311	-0.0000149817
698.389	-0.0000177130
698.468	0.0000142694
698.546	-0.0000123915
698.624	-0.0000452132
698.702	-0.00000775665
698.780	-0.0000226492
698.858	0.00000473648
698.936	-0.00000458664
699.014	-0.0000130362
699.093	-0.0000853743
699.171	-0.0000324759
699.249	-0.0000326437
699.327	-0.0000491003
699.405	-0.0000844969
699.483	-0.000109773
699.561	-0.000130399
699.639	-0.000106000
699.718	-0.000101907
699.796	-0.000143838
699.874	-0.000149225
699.952	-0.000111677
700.030	-0.000105546
700.108	-0.000107816
700.186	-0.000156019
700.264	-0.0000991186
700.343	-0.0000911650
700.421	-0.000110666
700.499	-0.0000705771
700.577	-0.0000883307
700.655	-0.0000544791
700.733	-0.000122755
700.811	-0.000126554
700.889	-0.000106363
700.968	-0.000148637
701.046	-0.0000840086
701.124	-0.0000913214
701.202	-0.000119905
701.280	-0.000113698
701.358	-0.000122693
701.436	-0.000104104
701.514	-0.000117963
701.593	-0.0000928854
701.671	-0.000124536
701.749	-0.0000807318
701.827	-0.0000880713
701.905	-0.0000856490
701.983	-0.00000671142
702.061	-0.0000258459
702.139	-0.0000542960
702.218	-0.0000673460
702.296	-0.0000102858
702.374	-0.00000991577
702.452	-0.00000364441
702.530	-0.00000408310
702.608	-0.00000101608
702.686	0.0000171266
702.764	0.0000294672
702.843	-0.0000130133
702.921	0.0000218263
702.999	0.0000247331
703.077	0.0000476709
703.155	0.0000554758
703.233	0.0000665651
703.311	0.0000531603
703.389	0.0000688692
703.468	0.000102286
703.546	0.0000952020
703.624	0.000139762
703.702	0.000141139
703.780	0.000168643
703.858	0.000176745
703.936	0.000212386
704.014	0.000251433
704.093	0.000259219
704.171	0.000280093
704.249	0.000287524
704.327	0.000324313
704.405	0.000362383
704.483	0.000367285
704.561	0.000337832
704.639	0.000382769
704.718	0.000392989
704.796	0.000452784
704.874	0.000474810
704.952	0.000443743
705.030	0.000481738
705.108	0.000546546
705.186	0.000523799
705.264	0.000567763
705.343	0.000634574
705.421	0.000622679
705.499	0.000655730
705.577	0.000685393
705.655	0.000708712
705.733	0.000732840
705.811	0.000744788
705.889	0.000778861
705.968	0.000826167
706.046	0.000844992
706.124	0.000895930
706.202	0.000875426
706.280	0.000905940
706.358	0.000957133
706.436	0.000992919
706.514	0.000997592
706.593	0.00101114
706.671	0.00101167
706.749	0.00100793
706.827	0.00103856
706.905	0.00107665
706.983	0.00108538
707.061	0.00112520
707.139	0.00110360
707.218	0.00116409
707.296	0.00121636
707.374	0.00120938
707.452	0.00123599
707.530	0.00128982
707.608	0.00131788
707.686	0.00138343
707.764	0.00132809
707.843	0.00137098
707.921	0.00140513
707.999	0.00139107
708.077	0.00142603
708.155	0.00148484
708.233	0.00148483
708.311	0.00148600
708.389	0.00155365
708.468	0.00153407
708.546	0.00150893
708.624	0.00157897
708.702	0.00158310
708.780	0.00162567
708.858	0.00159777
708.936	0.00157880
709.014	0.00157961
709.093	0.00156997
709.171	0.00159086
709.249	0.00155494
709.327	0.00153034
709.405	0.00151562
709.483	0.00149661
709.561	0.00146235
709.639	0.00138255
709.718	0.00137030
709.796	0.00133282
709.874	0.00126703
709.952	0.00119020
710.030	0.00115369
710.108	0.00112683
710.186	0.00109220
710.264	0.000982565
710.343	0.000905028
710.421	0.000846522
710.499	0.000792643
710.577	0.000734271
710.655	0.000708304
710.733	0.000664465
710.811	0.000593199
710.889	0.000544009
710.968	0.000502261
711.046	0.000499091
711.124	0.000438971
711.202	0.000366061
711.280	0.000361285
711.358	0.000254862
711.436	0.000248293
711.514	0.000167159
711.593	0.0000595270
711.671	-0.0000269675
711.749	-0.000174489
711.827	-0.000298192
711.905	-0.000454698
711.983	-0.000611360
712.061	-0.000789743
712.139	-0.000987123
712.218	-0.00120960
712.296	-0.00139173
712.374	-0.00155360
712.452	-0.00172259
712.530	-0.00182419
712.608	-0.00194291
712.686	-0.00203721
712.764	-0.00211937
712.843	-0.00216096
712.921	-0.00217350
712.999	-0.00211669
713.077	-0.00215507
713.155	-0.00212888
713.233	-0.00213291
713.311	-0.00209495
713.389	-0.00210629
713.468	-0.00210230
713.546	-0.00207597
713.624	-0.00213666
713.702	-0.00211960
713.780	-0.00217204
713.858	-0.00217542
713.936	-0.00215901
714.014	-0.00214974
714.093	-0.00217581
714.171	-0.00216387
714.249	-0.00218451
714.327	-0.00220540
714.405	-0.00222154
714.483	-0.00222066
714.561	-0.00222577
714.639	-0.00223663
714.718	-0.00222077
714.796	-0.00224002
714.874	-0.00228433
714.952	-0.00227639
715.030	-0.00227404
715.108	-0.00231284
715.186	-0.00231738
715.264	-0.00232516
715.343	-0.00235906
715.421	-0.00236707
715.499	-0.00237610
715.577	-0.00239415
715.655	-0.00242465
715.733	-0.00242742
715.811	-0.00243952
715.889	-0.00247027
715.968	-0.00247262
716.046	-0.00247236
716.124	-0.00246858
716.202	-0.00247271
716.280	-0.00242611
716.358	-0.00241464
716.436	-0.00244244
716.514	-0.00237446
716.593	-0.00237075
716.671	-0.00235452
716.749	-0.00232139
716.827	-0.00229748
716.905	-0.00221785
716.983	-0.00216670
717.061	-0.00213956
717.139	-0.00206319
717.218	-0.00203974
717.296	-0.00192912
717.374	-0.00186399
717.452	-0.00183787
717.530	-0.00174603
717.608	-0.00169045
717.686	-0.00157032
717.764	-0.00151899
717.843	-0.00146741
717.921	-0.00137692
717.999	-0.00131428
718.077	-0.00126452
718.155	-0.00121155
718.233	-0.00119272
718.311	-0.00111474
718.389	-0.00107797
718.468	-0.00103581
718.546	-0.00101499
718.624	-0.000948041
718.702	-0.000878168
718.780	-0.000843419
718.858	-0.000823125
718.936	-0.000706544
719.014	-0.000612447
719.093	-0.000558301
719.171	-0.000410139
719.249	-0.000309686
719.327	-0.000197786
719.405	-0.0000345778
719.483	0.000157942
719.561	0.000339110
719.639	0.000504878
719.718	0.000682437
719.796	0.000842104
719.874	0.00101522
719.952	0.00120778
720.030	0.00137659
720.108	0.00149952
720.186	0.00165120
720.264	0.00174457
720.343	0.00190224
720.421	0.00192958
720.499	0.00200323
720.577	0.00202054
720.655	0.00198395
720.733	0.00199707
720.811	0.00191537
720.889	0.00188111
720.968	0.00179266
721.046	0.00177595
721.124	0.00178649
721.202	0.00187580
721.280	0.00206203
721.358	0.00223854
721.436	0.00250453
721.514	0.00277577
721.593	0.00300354
721.671	0.00322558
721.749	0.00334198
721.827	0.00339555
721.905	0.00333332
721.983	0.00317670
722.061	0.00295161
722.139	0.00272915
722.218	0.00245661
722.296	0.00210276
722.374	0.00175960
722.452	0.00143047
722.530	0.00108050
722.608	0.000748354
722.686	0.000439246
722.764	0.000128573
722.843	-0.000118436
722.921	-0.000294824
722.999	-0.000546651
723.077	-0.000693914
723.155	-0.000820207
723.233	-0.000914663
723.311	-0.000994768
723.389	-0.00104533
723.468	-0.00115274
723.546	-0.00116955
723.624	-0.00119087
723.702	-0.00114463
723.780	-0.00116980
723.858	-0.00121415
723.936	-0.00119214
724.014	-0.00115402
724.093	-0.00117590
724.171	-0.00118104
724.249	-0.00107967
724.327	-0.00109414
724.405	-0.00111031
724.483	-0.00104112
724.561	-0.00104315
724.639	-0.000954709
724.718	-0.000888971
724.796	-0.000882741
724.874	-0.000839929
724.952	-0.000757741
725.030	-0.000713460
725.108	-0.000647668
725.186	-0.000608053
725.264	-0.000579751
725.343	-0.000439714
725.421	-0.000368005
725.499	-0.000289636
725.577	-0.000181447
725.655	-0.0000741972
725.733	0.0000279070
725.811	0.000137843
725.889	0.000213488
725.968	0.000390791
726.046	0.000485594
726.124	0.000651305
726.202	0.000772154
726.280	0.000933901
726.358	0.00112361
726.436	0.00134646
726.514	0.00150482
726.593	0.00168970
726.671	0.00193696
726.749	0.00215210
726.827	0.00237223
726.905	0.00263712
726.983	0.00293519
727.061	0.00321664
727.139	0.00348049
727.218	0.00383158
727.296	0.00413607
727.374	0.00449239
727.452	0.00484131
727.530	0.00522035
727.608	0.00564274
727.686	0.00604777
727.764	0.00647026
727.843	0.00691799
727.921	0.00739513
727.999	0.00788964
728.077	0.00842885
728.155	0.00900519
728.233	0.00956187
728.311	0.0102128
728.389	0.0108088
728.468	0.0114833
728.546	0.0122596
728.624	0.0130088
728.702	0.0137962
728.780	0.0146251
728.858	0.0155569
728.936	0.0165033
729.014	0.0174997
729.093	0.0185633
729.171	0.0197096
729.249	0.0208735
729.327	0.0221339
729.405	0.0234620
729.483	0.0248196
729.561	0.0262186
729.639	0.0277793
729.718	0.0293214
729.796	0.0309674
729.874	0.0326284
729.952	0.0343670
730.030	0.0361554
730.108	0.0379653
730.186	0.0398569
730.264	0.0417862
730.343	0.0437609
730.421	0.0457072
730.499	0.0476854
730.577	0.0496690
730.655	0.0516618
730.733	0.0536314
730.811	0.0555925
730.889	0.0574484
730.968	0.0592446
731.046	0.0610279
731.124	0.0626487
731.202	0.0641635
731.280	0.0654955
731.358	0.0666879
731.436	0.0675168
731.514	0.0680875
731.593	0.0681954
731.671	0.0675981
731.749	0.0660086
731.827	0.0630162
731.905	0.0578776
731.983	0.0498397
732.061	0.0378886
732.139	0.0207089
732.218	-0.00296045
732.296	-0.0343411
732.374	-0.0742245
732.452	-0.122950
732.530	-0.179420
732.608	-0.241531
732.686	-0.305321
732.764	-0.365486
732.843	-0.415827
732.921	-0.450169
732.999	-0.463487
733.077	-0.453154
733.155	-0.419779
733.233	-0.367492
733.311	-0.302830
733.389	-0.233464
733.468	-0.166528
733.546	-0.107001
733.624	-0.0571953
733.702	-0.0168668
733.780	0.0156940
733.858	0.0424031
733.936	0.0647465
734.014	0.0830956
734.093	0.0970652
734.171	0.106108
734.249	0.110149
734.327	0.109834
734.405	0.106246
734.483	0.100730
734.561	0.0945462
734.639	0.0882827
734.718	0.0821271
734.796	0.0759467
734.874	0.0697067
734.952	0.0633900
735.030	0.0574023
735.108	0.0520284
735.186	0.0475677
735.264	0.0443060
735.343	0.0420320
735.421	0.0404885
735.499	0.0391850
735.577	0.0377350
735.655	0.0358766
735.733	0.0336328
735.811	0.0312996
735.889	0.0291428
735.968	0.0273847
736.046	0.0260705
736.124	0.0252246
736.202	0.0246885
736.280	0.0244511
736.358	0.0244199
736.436	0.0244985
736.514	0.0244540
736.593	0.0242764
736.671	0.0239593
736.749	0.0235418
736.827	0.0232009
736.905	0.0232707
736.983	0.0239181
737.061	0.0252215
737.139	0.0270941
737.218	0.0289245
737.296	0.0304708
737.374	0.0313791
737.452	0.0316297
737.530	0.0313774
737.608	0.0310604
737.686	0.0309409
737.764	0.0313752
737.843	0.0323877
737.921	0.0336969
737.999	0.0350489
738.077	0.0360132
738.155	0.0364528
738.233	0.0362806
738.311	0.0354129
738.389	0.0339178
738.468	0.0318243
738.546	0.0293005
738.624	0.0264364
738.702	0.0234511
738.780	0.0206924
738.858	0.0184274
738.936	0.0168693
739.014	0.0160394
739.093	0.0159336
739.171	0.0163412
739.249	0.0169703
739.327	0.0174818
739.405	0.0177626
739.483	0.0177212
739.561	0.0171784
739.639	0.0163707
739.718	0.0152629
739.796	0.0140009
739.874	0.0127586
739.952	0.0116138
740.030	0.0105137
740.108	0.00948792
740.186	0.00846170
740.264	0.00742588
740.343	0.00624726
740.421	0.00500662
740.499	0.00372233
740.577	0.00248484
740.655	0.00140500
740.733	0.000519682
740.811	-0.000408742
740.889	-0.00124760
740.968	-0.00213001
741.046	-0.00304749
741.124	-0.00400545
741.202	-0.00495191
741.280	-0.00584525
741.358	-0.00660286
741.436	-0.00714110
741.514	-0.00755434
741.593	-0.00784153
741.671	-0.00792882
741.749	-0.00778844
741.827	-0.00755488
741.905	-0.00707246
741.983	-0.00674804
742.061	-0.00653542
742.139	-0.00673004
742.218	-0.00737094
742.296	-0.00844036
742.374	-0.00999606
742.452	-0.0117022
742.530	-0.0133167
742.608	-0.0145711
742.686	-0.0154419
742.764	-0.0157767
742.843	-0.0156340
742.921	-0.0152388
742.999	-0.0146406
743.077	-0.0139860
743.155	-0.0133846
743.233	-0.0128390
743.311	-0.0122442
743.389	-0.0116011
743.468	-0.0109050
743.546	-0.0101422
743.624	-0.00926333
743.702	-0.00843329
743.780	-0.00767151
743.858	-0.00712406
743.936	-0.00678830
744.014	-0.00677467
744.093	-0.00703417
744.171	-0.00748840
744.249	-0.00810561
744.327	-0.00873742
744.405	-0.00921887
744.483	-0.00947233
744.561	-0.00943907
744.639	-0.00902027
744.718	-0.00822928
744.796	-0.00710130
744.874	-0.00589816
744.952	-0.00473090
745.030	-0.00379685
745.108	-0.00319466
745.186	-0.00287296
745.264	-0.00285638
745.343	-0.00287669
745.421	-0.00280745
745.499	-0.00249805
745.577	-0.00181628
745.655	-0.00110465
745.733	-0.000484205
745.811	-0.000148576
745.889	-0.000330537
745.968	-0.00105937
746.046	-0.00216720
746.124	-0.00336843
746.202	-0.00445000
746.280	-0.00515760
746.358	-0.00540570
746.436	-0.00525879
746.514	-0.00495325
746.593	-0.00459451
746.671	-0.00431275
746.749	-0.00408098
746.827	-0.00399324
746.905	-0.00392193
746.983	-0.00376720
747.061	-0.00346384
747.139	-0.00286976
747.218	-0.00209734
747.296	-0.00108635
747.374	0.00000298172
747.452	0.000949626
747.530	0.00153159
747.608	0.00159775
747.686	0.000994753
747.764	-0.000119604
747.843	-0.00156241
747.921	-0.00303579
747.999	-0.00419715
748.077	-0.00482148
748.155	-0.00490999
748.233	-0.00452200
748.311	-0.00371446
748.389	-0.00280220
748.468	-0.00188767
748.546	-0.00111793
748.624	-0.000475519
748.702	-0.0000878195
748.780	0.000214484
748.858	0.000520861
748.936	0.000964678
749.014	0.00167253
749.093	0.00256713
749.171	0.00361001
749.249	0.00447595
749.327	0.00479727
749.405	0.00437646
749.483	0.00315422
749.561	0.00145539
749.639	-0.000328489
749.718	-0.00170995
749.796	-0.00249934
749.874	-0.00237428
749.952	-0.00160147
750.030	-0.000523534
750.108	0.000539084
750.186	0.00136406
750.264	0.00180245
750.343	0.00180719
750.421	0.00166478
750.499	0.00145503
750.577	0.00133668
750.655	0.00147969
750.733	0.00196359
750.811	0.00272834
750.889	0.00373086
750.968	0.00472498
751.046	0.00553658
751.124	0.00598405
751.202	0.00599978
751.280	0.00550950
751.358	0.00467387
751.436	0.00373663
751.514	0.00290619
751.593	0.00245828
751.671	0.00239247
751.749	0.00260713
751.827	0.00305450
751.905	0.00347975
751.983	0.00388703
752.061	0.00399701
752.139	0.00403551
752.218	0.00400033
752.296	0.00392713
752.374	0.00402160
752.452	0.00431339
752.530	0.00484234
752.608	0.00557829
752.686	0.00633319
752.764	0.00699160
752.843	0.00734361
752.921	0.00713990
752.999	0.00637105
753.077	0.00504566
753.155	0.00344962
753.233	0.00175517
753.311	0.000322867
753.389	-0.000731527
753.468	-0.00143382
753.546	-0.00180209
753.624	-0.00208106
753.702	-0.00237837
753.780	-0.00268958
753.858	-0.00296024
753.936	-0.00316149
754.014	-0.00313445
754.093	-0.00287784
754.171	-0.00258920
754.249	-0.00224229
754.327	-0.00198400
754.405	-0.00184064
754.483	-0.00193598
754.561	-0.00229448
754.639	-0.00286205
754.718	-0.00357447
754.796	-0.00441364
754.874	-0.00538867
754.952	-0.00627200
755.030	-0.00703118
755.108	-0.00779854
755.186	-0.00833442
755.264	-0.00875500
755.343	-0.00922330
755.421	-0.00955094
755.499	-0.00990040
755.577	-0.0102280
755.655	-0.0105232
755.733	-0.0107397
755.811	-0.0109346
755.889	-0.0110521
755.968	-0.0110265
756.046	-0.0110096
756.124	-0.0107682
756.202	-0.0104294
756.280	-0.0100224
756.358	-0.00954076
756.436	-0.00921331
756.514	-0.00886722
756.593	-0.00858426
756.671	-0.00828298
756.749	-0.00791872
756.827	-0.00739220
756.905	-0.00672962
756.983	-0.00597408
757.061	-0.00523547
757.139	-0.00455557
757.218	-0.00402606
757.296	-0.00349612
757.374	-0.00297054
757.452	-0.00223092
757.530	-0.00132480
757.608	-0.000213266
757.686	0.00101656
757.764	0.00226393
757.843	0.00340980
757.921	0.00436512
757.999	0.00509203
758.077	0.00565198
758.155	0.00593708
758.233	0.00611923
758.311	0.00619004
758.389	0.00619126
758.468	0.00610628
758.546	0.00597520
758.624	0.00577581
758.702	0.00545340
758.780	0.00512133
758.858	0.00477321
758.936	0.00449990
759.014	0.00438486
759.093	0.00456644
759.171	0.00498183
759.249	0.00558521
759.327	0.00629918
759.405	0.00689494
759.483	0.00730519
759.561	0.00742963
759.639	0.00736070
759.718	0.00715468
759.796	0.00686584
759.874	0.00651103
759.952	0.00613729
760.030	0.00579112
760.108	0.00544394
760.186	0.00506999
760.264	0.00471710
760.343	0.00433823
760.421	0.00391049
760.499	0.00334637
760.577	0.00271038
760.655	0.00199368
760.733	0.00124294
760.811	0.000712336
760.889	0.000432742
760.968	0.000510306
761.046	0.000901278
761.124	0.00155225
761.202	0.00224611
761.280	0.00288067
761.358	0.00331807
761.436	0.00340306
761.514	0.00331276
761.593	0.00313816
761.671	0.00288007
761.749	0.00279330
761.827	0.00288744
761.905	0.00318303
761.983	0.00353165
762.061	0.00376230
762.139	0.00381000
762.218	0.00348291
762.296	0.00276990
762.374	0.00180225
762.452	0.000691607
762.530	-0.000308031
762.608	-0.00106280
762.686	-0.00142685
762.764	-0.00141063
762.843	-0.00114875
762.921	-0.000627767
762.999	-0.000132417
763.077	0.000363764
763.155	0.000683863
763.233	0.000892497
763.311	0.000930647
763.389	0.000939742
763.468	0.000827315
763.546	0.000745612
763.624	0.000658534
763.702	0.000469447
763.780	0.000196185
763.858	-0.000128457
763.936	-0.000651102
764.014	-0.00127414
764.093	-0.00190370
764.171	-0.00259025
764.249	-0.00307091
764.327	-0.00347740
764.405	-0.00357010
764.483	-0.00339402
764.561	-0.00289653
764.639	-0.00217343
764.718	-0.00133516
764.796	-0.000502675
764.874	0.000290701
764.952	0.000874648
765.030	0.00124018
765.108	0.00142209
765.186	0.00153345
765.264	0.00171200
765.343	0.00194393
765.421	0.00231088
765.499	0.00272218
765.577	0.00304827
765.655	0.00328532
765.733	0.00328389
765.811	0.00321446
765.889	0.00303037
765.968	0.00288539
766.046	0.00288761
766.124	0.00305419
766.202	0.00341732
766.280	0.00392412
766.358	0.00442631
766.436	0.00493703
766.514	0.00530115
766.593	0.00558842
766.671	0.00578850
766.749	0.00609500
766.827	0.00628901
766.905	0.00651349
766.983	0.00673166
767.061	0.00687423
767.139	0.00684341
767.218	0.00677449
767.296	0.00655431
767.374	0.00618017
767.452	0.00568847
767.530	0.00502726
767.608	0.00418704
767.686	0.00309029
767.764	0.00190373
767.843	0.000622168
767.921	-0.000740102
767.999	-0.00193883
768.077	-0.00292573
768.155	-0.00366216
768.233	-0.00416576
768.311	-0.00431700
768.389	-0.00429452
768.468	-0.00409940
768.546	-0.00380294
768.624	-0.00347615
768.702	-0.00316623
768.780	-0.00299403
768.858	-0.00280140
768.936	-0.00264567
769.014	-0.00244374
769.093	-0.00235064
769.171	-0.00221548
769.249	-0.00220551
769.327	-0.00229534
769.405	-0.00248395
769.483	-0.00276147
769.561	-0.00301299
769.639	-0.00320709
769.718	-0.00328049
769.796	-0.00314265
769.874	-0.00289234
769.952	-0.00247893
770.030	-0.00194922
770.108	-0.00139633
770.186	-0.000925504
770.264	-0.000406766
770.343	0.0000261408
770.421	0.000339728
770.499	0.000445517
770.577	0.000413291
770.655	0.000236617
770.733	-0.000110517
770.811	-0.000441492
770.889	-0.000851255
770.968	-0.00109682
771.046	-0.00126776
771.124	-0.00145292
771.202	-0.00158546
771.280	-0.00168371
771.358	-0.00189412
771.436	-0.00216029
771.514	-0.00243228
771.593	-0.00269605
771.671	-0.00288118
771.749	-0.00295332
771.827	-0.00289558
771.905	-0.00263976
771.983	-0.00234548
772.061	-0.00197661
772.139	-0.00152174
772.218	-0.00108095
772.296	-0.000643526
772.374	-0.000190023
772.452	0.000205828
772.530	0.000440478
772.608	0.000633627
772.686	0.000683096
772.764	0.000573508
772.843	0.000397624
772.921	0.000107703
772.999	-0.000215635
773.077	-0.000589712
773.155	-0.000877706
773.233	-0.00112076
773.311	-0.00132480
773.389	-0.00154280
773.468	-0.00171844
773.546	-0.00184829
773.624	-0.00187394
773.702	-0.00176182
773.780	-0.00144374
773.858	-0.000947355
773.936	-0.000254968
774.014	0.000363291
774.093	0.00106208
774.171	0.00166087
774.249	0.00195136
774.327	0.00206254
774.405	0.00185295
774.483	0.00154299
774.561	0.00108834
774.639	0.000684119
774.718	0.000345912
774.796	0.000161715
774.874	0.000196379
774.952	0.000196185
775.030	0.000223441
775.108	0.000222109
775.186	0.000254050
775.264	0.000148207
775.343	0.000167262
775.421	0.000267886
775.499	0.000432478
775.577	0.000682925
775.655	0.000992327
775.733	0.00125666
775.811	0.00160364
775.889	0.00181362
775.968	0.00187726
776.046	0.00181863
776.124	0.00161598
776.202	0.00124178
776.280	0.000795073
776.358	0.000377032
776.436	0.0000608354
776.514	-0.0000287451
776.593	-0.00000166076
776.671	0.0000856920
776.749	0.000194907
776.827	0.000205485
776.905	0.0000261484
776.983	-0.000333051
777.061	-0.000702798
777.139	-0.00109716
777.218	-0.00131018
777.296	-0.00122423
777.374	-0.000875150
777.452	-0.000283796
777.530	0.000420580
777.608	0.00110048
777.686	0.00159964
777.764	0.00179795
777.843	0.00174774
777.921	0.00140391
777.999	0.000944708
778.077	0.000550501
778.155	0.000234995
778.233	0.000143782
778.311	0.000142699
778.389	0.000188002
778.468	0.000182253
778.546	0.0000116640
778.624	-0.000325071
778.702	-0.000863904
778.780	-0.00143123
778.858	-0.00186127
778.936	-0.00205817
779.014	-0.00194272
779.093	-0.00147180
779.171	-0.000819890
779.249	-0.0000439276
779.327	0.000600279
779.405	0.00112904
779.483	0.00142010
779.561	0.00139465
779.639	0.00114107
779.718	0.000714331
779.796	0.000180987
779.874	-0.000327234
779.952	-0.000731035
780.030	-0.00107296
780.108	-0.00128261
780.186	-0.00141968
780.264	-0.00149008
780.343	-0.00161489
780.421	-0.00175616
780.499	-0.00201870
780.577	-0.00226491
780.655	-0.00244182
780.733	-0.00266593
780.811	-0.00267624
780.889	-0.00260414
780.968	-0.00246174
781.046	-0.00224762
781.124	-0.00209802
781.202	-0.00207557
781.280	-0.00219809
781.358	-0.00238397
781.436	-0.00267325
781.514	-0.00304743
781.593	-0.00329305
781.671	-0.00337765
781.749	-0.00340862
781.827	-0.00328826
781.905	-0.00313725
781.983	-0.00293192
782.061	-0.00275368
782.139	-0.00263773
782.218	-0.00254044
782.296	-0.00245574
782.374	-0.00230903
782.452	-0.00210681
782.530	-0.00181371
782.608	-0.00153102
782.686	-0.00116160
782.764	-0.000834657
782.843	-0.000532659
782.921	-0.000136758
782.999	0.000220313
783.077	0.000628279
783.155	0.000954207
783.233	0.00120029
783.311	0.00140507
783.389	0.00136308
783.468	0.00120574
783.546	0.000943923
783.624	0.000612177
783.702	0.000141264
783.780	-0.000282426
783.858	-0.000612592
783.936	-0.000896303
784.014	-0.00110098
784.093	-0.00121547
784.171	-0.00121069
784.249	-0.00107988
784.327	-0.000941446
784.405	-0.000690446
784.483	-0.000353601
784.561	0.0000697847
784.639	0.000535128
784.718	0.000981669
784.796	0.00151980
784.874	0.00199650
784.952	0.00231703
785.030	0.00248382
785.108	0.00259664
785.186	0.00252379
785.264	0.00239582
785.343	0.00226391
785.421	0.00220539
785.499	0.00222073
785.577	0.00236218
785.655	0.00258239
785.733	0.00293445
785.811	0.00331839
785.889	0.00373150
785.968	0.00417132
786.046	0.00468145
786.124	0.00509511
786.202	0.00553039
786.280	0.00605643
786.358	0.00654730
786.436	0.00704167
786.514	0.00756703
786.593	0.00810824
786.671	0.00859014
786.749	0.00890586
786.827	0.00896752
786.905	0.00878060
786.983	0.00826979
787.061	0.00759301
787.139	0.00677456
787.218	0.00595799
787.296	0.00519676
787.374	0.00456041
787.452	0.00407491
787.530	0.00358523
787.608	0.00312837
787.686	0.00273995
787.764	0.00237624
787.843	0.00213036
787.921	0.00194501
787.999	0.00200769
788.077	0.00235686
788.155	0.00286233
788.233	0.00368898
788.311	0.00458380
788.389	0.00562732
788.468	0.00659655
788.546	0.00752220
788.624	0.00818809
788.702	0.00867021
788.780	0.00897521
788.858	0.00905318
788.936	0.00905620
789.014	0.00894316
789.093	0.00879909
789.171	0.00869858
789.249	0.00872061
789.327	0.00874202
789.405	0.00883527
789.483	0.00890381
789.561	0.00902032
789.639	0.00921609
789.718	0.00946149
789.796	0.00971582
789.874	0.00999319
789.952	0.0103721
790.030	0.0108423
790.108	0.0113408
790.186	0.0118032
790.264	0.0122667
790.343	0.0125276
790.421	0.0124912
790.499	0.0120642
790.577	0.0110827
790.655	0.00948704
790.733	0.00715382
790.811	0.00412526
790.889	0.000329608
790.968	-0.00434110
791.046	-0.00986106
791.124	-0.0163026
791.202	-0.0238008
791.280	-0.0322029
791.358	-0.0413748
791.436	-0.0509353
791.514	-0.0605005
791.593	-0.0695938
791.671	-0.0775710
791.749	-0.0838357
791.827	-0.0878025
791.905	-0.0888649
791.983	-0.0869662
792.061	-0.0818465
792.139	-0.0739709
792.218	-0.0636156
792.296	-0.0517312
792.374	-0.0391119
792.452	-0.0267290
792.530	-0.0153489
792.608	-0.00563292
792.686	0.00222248
792.764	0.00809507
792.843	0.0122131
792.921	0.0150707
792.999	0.0170182
793.077	0.0184901
793.155	0.0198099
793.233	0.0209889
793.311	0.0220195
793.389	0.0228263
793.468	0.0231420
793.546	0.0229620
793.624	0.0224886
793.702	0.0216113
793.780	0.0205828
793.858	0.0194597
793.936	0.0185101
794.014	0.0175608
794.093	0.0166289
794.171	0.0155954
794.249	0.0144256
794.327	0.0131949
794.405	0.0118970
794.483	0.0107502
794.561	0.00971111
794.639	0.00886944
794.718	0.00830083
794.796	0.00781780
794.874	0.00735599
794.952	0.00693929
795.030	0.00655355
795.108	0.00623415
795.186	0.00606809
795.264	0.00607590
795.343	0.00640488
795.421	0.00687216
795.499	0.00737610
795.577	0.00790228
795.655	0.00828808
795.733	0.00864128
795.811	0.00874253
795.889	0.00874768
795.968	0.00863101
796.046	0.00841750
796.124	0.00825818
796.202	0.00812775
796.280	0.00819173
796.358	0.00830672
796.436	0.00850436
796.514	0.00873194
796.593	0.00890771
796.671	0.00903075
796.749	0.00906603
796.827	0.00891290
796.905	0.00866757
796.983	0.00838103
797.061	0.00818536
797.139	0.00804364
797.218	0.00793375
797.296	0.00791283
797.374	0.00781735
797.452	0.00759225
797.530	0.00722683
797.608	0.00664827
797.686	0.00598147
797.764	0.00528620
797.843	0.00462181
797.921	0.00408642
797.999	0.00367978
798.077	0.00335361
798.155	0.00323307
798.233	0.00313157
798.311	0.00302398
798.389	0.00284800
798.468	0.00268981
798.546	0.00245424
798.624	0.00219331
798.702	0.00205017
798.780	0.00188485
798.858	0.00176247
798.936	0.00176860
799.014	0.00190918
799.093	0.00204915
799.171	0.00220906
799.249	0.00237656
799.327	0.00253646
799.405	0.00257485
799.483	0.00247356
799.561	0.00232099
799.639	0.00204898
799.718	0.00164448
799.796	0.00122183
799.874	0.000831313
799.952	0.000381331
800.030	0.0000200067
800.108	-0.000364332
800.186	-0.000640912
800.264	-0.000871690
800.343	-0.00110005
800.421	-0.00121858
800.499	-0.00135899
800.577	-0.00148597
800.655	-0.00161476
800.733	-0.00171083
800.811	-0.00185351
800.889	-0.00198792
800.968	-0.00217484
801.046	-0.00237158
801.124	-0.00261776
801.202	-0.00301866
801.280	-0.00335119
801.358	-0.00380065
801.436	-0.00421879
801.514	-0.00454548
801.593	-0.00477504
801.671	-0.00497552
801.749	-0.00502977
801.827	-0.00497838
801.905	-0.00486040
801.983	-0.00472301
802.061	-0.00442395
802.139	-0.00409078
802.218	-0.00380658
802.296	-0.00339349
802.374	-0.00306238
802.452	-0.00273197
802.530	-0.00246738
802.608	-0.00220868
802.686	-0.00192340
802.764	-0.00166963
802.843	-0.00139589
802.921	-0.00107741
802.999	-0.000831068
803.077	-0.000565828
803.155	-0.000363985
803.233	-0.000316816
803.311	-0.000301107
803.389	-0.000321969
803.468	-0.000320650
803.546	-0.000333040
803.624	-0.000326288
803.702	-0.000169160
803.780	0.0000543695
803.858	0.000277972
803.936	0.000500758
804.014	0.000761267
804.093	0.000903407
804.171	0.00106126
804.249	0.00116660
804.327	0.00123129
804.405	0.00137115
804.483	0.00146352
804.561	0.00157298
804.639	0.00174328
804.718	0.00182756
804.796	0.00194622
804.874	0.00191899
804.952	0.00175989
805.030	0.00148415
805.108	0.00110234
805.186	0.000642935
805.264	0.000127989
805.343	-0.000279970
805.421	-0.000608468
805.499	-0.000736474
805.577	-0.000744958
805.655	-0.000593770
805.733	-0.000367216
805.811	-0.0000384383
805.889	0.000193068
805.968	0.000388545
806.046	0.000484988
806.124	0.000504733
806.202	0.000470213
806.280	0.000419520
806.358	0.000406577
806.436	0.000402850
806.514	0.000445677
806.593	0.000569827
806.671	0.000509684
806.749	0.000372450
806.827	0.0000816370
806.905	-0.000300397
806.983	-0.000734727
807.061	-0.00115301
807.139	-0.00144571
807.218	-0.00162772
807.296	-0.00168403
807.374	-0.00152726
807.452	-0.00130755
807.530	-0.00103497
807.608	-0.000802625
807.686	-0.000630567
807.764	-0.000543958
807.843	-0.000526174
807.921	-0.000544801
807.999	-0.000580137
808.077	-0.000600736
808.155	-0.000585679
808.233	-0.000516397
808.311	-0.000405981
808.389	-0.000348794
808.468	-0.000387357
808.546	-0.000488031
808.624	-0.000611162
808.702	-0.000885988
808.780	-0.00112097
808.858	-0.00130588
808.936	-0.00138625
809.014	-0.00134218
809.093	-0.00112810
809.171	-0.000796789
809.249	-0.000411878
809.327	0.0000796915
809.405	0.000431307
809.483	0.000746295
809.561	0.000979819
809.639	0.00110841
809.718	0.00120338
809.796	0.00131668
809.874	0.00150289
809.952	0.00172861
810.030	0.00187376
810.108	0.00202313
810.186	0.00200883
810.264	0.00186189
810.343	0.00154985
810.421	0.00105438
810.499	0.000504450
810.577	-0.0000740141
810.655	-0.000607671
810.733	-0.00105583
810.811	-0.00125099
810.889	-0.00141702
810.968	-0.00150100
811.046	-0.00152125
811.124	-0.00157583
811.202	-0.00168768
811.280	-0.00180036
811.358	-0.00189456
811.436	-0.00194155
811.514	-0.00194259
811.593	-0.00191034
811.671	-0.00175900
811.749	-0.00161360
811.827	-0.00149482
811.905	-0.00144544
811.983	-0.00161099
812.061	-0.00196835
812.139	-0.00243551
812.218	-0.00312841
812.296	-0.00384777
812.374	-0.00456664
812.452	-0.00524603
812.530	-0.00574117
812.608	-0.00599349
812.686	-0.00601061
812.764	-0.00573864
812.843	-0.00533948
812.921	-0.00482106
812.999	-0.00414327
813.077	-0.00351117
813.155	-0.00296948
813.233	-0.00255677
813.311	-0.00222119
813.389	-0.00195771
813.468	-0.00166430
813.546	-0.00143927
813.624	-0.00125633
813.702	-0.00105426
813.780	-0.000919504
813.858	-0.000939023
813.936	-0.00105526
814.014	-0.00125283
814.093	-0.00147188
814.171	-0.00180237
814.249	-0.00202695
814.327	-0.00219999
814.405	-0.00238894
814.483	-0.00250550
814.561	-0.00258891
814.639	-0.00261925
814.718	-0.00268071
814.796	-0.00259434
814.874	-0.00256951
814.952	-0.00243061
815.030	-0.00226969
815.108	-0.00213078
815.186	-0.00188019
815.264	-0.00164009
815.343	-0.00146796
815.421	-0.00127536
815.499	-0.00106710
815.577	-0.000960718
815.655	-0.000850648
815.733	-0.000868558
815.811	-0.000868173
815.889	-0.000934446
815.968	-0.000983983
816.046	-0.00102932
816.124	-0.00107039
816.202	-0.000992124
816.280	-0.000940355
816.358	-0.000744977
816.436	-0.000511278
816.514	-0.000206457
816.593	0.000139742
816.671	0.000477290
816.749	0.000804328
816.827	0.00110079
816.905	0.00137709
816.983	0.00159201
817.061	0.00180712
817.139	0.00192752
817.218	0.00202092
817.296	0.00209175
817.374	0.00213771
817.452	0.00205214
817.530	0.00203845
817.608	0.00194219
817.686	0.00188479
817.764	0.00182490
817.843	0.00180770
817.921	0.00175405
817.999	0.00175952
818.077	0.00174415
818.155	0.00177263
818.233	0.00174008
818.311	0.00172546
818.389	0.00173017
818.468	0.00176740
818.546	0.00183990
818.624	0.00192504
818.702	0.00208232
818.780	0.00222170
818.858	0.00235488
818.936	0.00244707
819.014	0.00249824
819.093	0.00245141
819.171	0.00236415
819.249	0.00218383
819.327	0.00195059
819.405	0.00165404
819.483	0.00129154
819.561	0.000888571
819.639	0.000583533
819.718	0.000193591
819.796	-0.0000826926
819.874	-0.000336038
819.952	-0.000568456
820.030	-0.000756143
820.108	-0.000873956
820.186	-0.000909357
820.264	-0.000947675
820.343	-0.000809526
820.421	-0.000650136
820.499	-0.000418802
820.577	-0.000264043
820.655	-0.0000353331
820.733	0.000177435
820.811	0.000316088
820.889	0.000380553
820.968	0.000475730
821.046	0.000573893
821.124	0.000686499
821.202	0.000799906
821.280	0.000932971
821.358	0.00103469
821.436	0.00115130
821.514	0.00124083
821.593	0.00129459
821.671	0.00134922
821.749	0.00138185
821.827	0.00139992
821.905	0.00141019
821.983	0.00149455
822.061	0.00154815
822.139	0.00160804
822.218	0.00167447
822.296	0.00163455
822.374	0.00159007
822.452	0.00147111
822.530	0.00131235
822.608	0.00114792
822.686	0.000988883
822.764	0.000921595
822.843	0.000913817
822.921	0.000993990
822.999	0.00105660
823.077	0.00117842
823.155	0.00127820
823.233	0.00132585
823.311	0.00137670
823.389	0.00135848
823.468	0.00144916
823.546	0.00157332
823.624	0.00177742
823.702	0.00202625
823.780	0.00235050
823.858	0.00273637
823.936	0.00306879
824.014	0.00340127
824.093	0.00374770
824.171	0.00398959
824.249	0.00419935
824.327	0.00441527
824.405	0.00456134
824.483	0.00475448
824.561	0.00496182
824.639	0.00521153
824.718	0.00544491
824.796	0.00566204
824.874	0.00579940
824.952	0.00596003
825.030	0.00604841
825.108	0.00600167
825.186	0.00603081
825.264	0.00607850
825.343	0.00620291
825.421	0.00638168
825.499	0.00665673
825.577	0.00697542
825.655	0.00727181
825.733	0.00758123
825.811	0.00777126
825.889	0.00800735
825.968	0.00810440
826.046	0.00821976
826.124	0.00819199
826.202	0.00815957
826.280	0.00808071
826.358	0.00793749
826.436	0.00783847
826.514	0.00764957
826.593	0.00735144
826.671	0.00708998
826.749	0.00673636
826.827	0.00638744
826.905	0.00599230
826.983	0.00575129
827.061	0.00545931
827.139	0.00531505
827.218	0.00523607
827.296	0.00515366
827.374	0.00504434
827.452	0.00492818
827.530	0.00480534
827.608	0.00460621
827.686	0.00441856
827.764	0.00413824
827.843	0.00393043
827.921	0.00372130
827.999	0.00343969
828.077	0.00316546
828.155	0.00291722
828.233	0.00264219
828.311	0.00227495
828.389	0.00194239
828.468	0.00161562
828.546	0.00123748
828.624	0.000863650
828.702	0.000485148
828.780	0.0000567117
828.858	-0.000448701
828.936	-0.00110644
829.014	-0.00185263
829.093	-0.00292044
829.171	-0.00431909
829.249	-0.00606333
829.327	-0.00806773
829.405	-0.0105037
829.483	-0.0132033
829.561	-0.0160546
829.639	-0.0190152
829.718	-0.0218536
829.796	-0.0244911
829.874	-0.0267022
829.952	-0.0285012
830.030	-0.0296722
830.108	-0.0302301
830.186	-0.0302249
830.264	-0.0296678
830.343	-0.0286192
830.421	-0.0272338
830.499	-0.0254242
830.577	-0.0232557
830.655	-0.0207390
830.733	-0.0178989
830.811	-0.0148701
830.889	-0.0116602
830.968	-0.00858842
831.046	-0.00577638
831.124	-0.00318232
831.202	-0.000940393
831.280	0.000862307
831.358	0.00241585
831.436	0.00370988
831.514	0.00481846
831.593	0.00582456
831.671	0.00664324
831.749	0.00726152
831.827	0.00763477
831.905	0.00773231
831.983	0.00753620
832.061	0.00718666
832.139	0.00668791
832.218	0.00613630
832.296	0.00564791
832.374	0.00525236
832.452	0.00485318
832.530	0.00451013
832.608	0.00414124
832.686	0.00378850
832.764	0.00353351
832.843	0.00326126
832.921	0.00301412
832.999	0.00283320
833.077	0.00268659
833.155	0.00243886
833.233	0.00217465
833.311	0.00186373
833.389	0.00152497
833.468	0.00116374
833.546	0.000804606
833.624	0.000352938
833.702	-0.000115301
833.780	-0.000482389
833.858	-0.000952100
833.936	-0.00129688
834.014	-0.00172048
834.093	-0.00209461
834.171	-0.00245852
834.249	-0.00281176
834.327	-0.00311197
834.405	-0.00336740
834.483	-0.00350070
834.561	-0.00355147
834.639	-0.00346241
834.718	-0.00315291
834.796	-0.00274526
834.874	-0.00213941
834.952	-0.00145377
835.030	-0.000723672
835.108	-0.0000654730
835.186	0.000595912
835.264	0.00115809
835.343	0.00159193
835.421	0.00203254
835.499	0.00223402
835.577	0.00237781
835.655	0.00244981
835.733	0.00241796
835.811	0.00239029
835.889	0.00238185
835.968	0.00233528
836.046	0.00229285
836.124	0.00239112
836.202	0.00247510
836.280	0.00258689
836.358	0.00267361
836.436	0.00289879
836.514	0.00305844
836.593	0.00325431
836.671	0.00348783
836.749	0.00370842
836.827	0.00396050
836.905	0.00422210
836.983	0.00437640
837.061	0.00445790
837.139	0.00459494
837.218	0.00461621
837.296	0.00468990
837.374	0.00479409
837.452	0.00491076
837.530	0.00510066
837.608	0.00534094
837.686	0.00559494
837.764	0.00585384
837.843	0.00609883
837.921	0.00629729
837.999	0.00640597
838.077	0.00641620
838.155	0.00635753
838.233	0.00630653
838.311	0.00622883
838.389	0.00608857
838.468	0.00590549
838.546	0.00571686
838.624	0.00542363
838.702	0.00513872
838.780	0.00473561
838.858	0.00426663
838.936	0.00372926
839.014	0.00319956
839.093	0.00273155
839.171	0.00220370
839.249	0.00176341
839.327	0.00134460
839.405	0.000943080
839.483	0.000594260
839.561	0.000281092
839.639	-0.0000396132
839.718	-0.000314611
839.796	-0.000493852
839.874	-0.000706144
839.952	-0.000785619
840.030	-0.000855409
840.108	-0.000861547
840.186	-0.000774900
840.264	-0.000742502
840.343	-0.000660009
840.421	-0.000539247
840.499	-0.000549051
840.577	-0.000583681
840.655	-0.000693670
840.733	-0.000826765
840.811	-0.00105314
840.889	-0.00124403
840.968	-0.00148072
841.046	-0.00165576
841.124	-0.00190147
841.202	-0.00213364
841.280	-0.00230290
841.358	-0.00258822
841.436	-0.00280826
841.514	-0.00300824
841.593	-0.00324026
841.671	-0.00338227
841.749	-0.00350268
841.827	-0.00347823
841.905	-0.00341153
841.983	-0.00323133
842.061	-0.00306469
842.139	-0.00282540
842.218	-0.00253059
842.296	-0.00233158
842.374	-0.00216043
842.452	-0.00192639
842.530	-0.00181181
842.608	-0.00171938
842.686	-0.00161144
842.764	-0.00154780
842.843	-0.00151814
842.921	-0.00144286
842.999	-0.00143100
843.077	-0.00139344
843.155	-0.00138998
843.233	-0.00132168
843.311	-0.00124402
843.389	-0.00113377
843.468	-0.000985181
843.546	-0.000840196
843.624	-0.000667863
843.702	-0.000432405
843.780	-0.000230619
843.858	0.0000605302
843.936	0.000286727
844.014	0.000531329
844.093	0.000705100
844.171	0.000831309
844.249	0.000950438
844.327	0.000976779
844.405	0.000941439
844.483	0.000886775
844.561	0.000809897
844.639	0.000804663
844.718	0.000718623
844.796	0.000714003
844.874	0.000757479
844.952	0.000781687
845.030	0.000828581
845.108	0.000922949
845.186	0.00103237
845.264	0.00113756
845.343	0.00117720
845.421	0.00131027
845.499	0.00140670
845.577	0.00144579
845.655	0.00153937
845.733	0.00167407
845.811	0.00168600
845.889	0.00174369
845.968	0.00173591
846.046	0.00172427
846.124	0.00164163
846.202	0.00153460
846.280	0.00135478
846.358	0.00115265
846.436	0.000982394
846.514	0.000777213
846.593	0.000662009
846.671	0.000590594
846.749	0.000569796
846.827	0.000550330
846.905	0.000669711
846.983	0.000781889
847.061	0.000936347
847.139	0.00109509
847.218	0.00128554
847.296	0.00148001
847.374	0.00170051
847.452	0.00193128
847.530	0.00221113
847.608	0.00248409
847.686	0.00269545
847.764	0.00289833
847.843	0.00298030
847.921	0.00304191
847.999	0.00307604
848.077	0.00306964
848.155	0.00305186
848.233	0.00306593
848.311	0.00304895
848.389	0.00314164
848.468	0.00322764
848.546	0.00335518
848.624	0.00342485
848.702	0.00350629
848.780	0.00351762
848.858	0.00354114
848.936	0.00349707
849.014	0.00344978
849.093	0.00336358
849.171	0.00327819
849.249	0.00314773
849.327	0.00300742
849.405	0.00271902
849.483	0.00237839
849.561	0.00185490
849.639	0.00116783
849.718	0.000354258
849.796	-0.000744989
849.874	-0.00200031
849.952	-0.00344489
850.030	-0.00504044
850.108	-0.00672321
850.186	-0.00846779
850.264	-0.0102227
850.343	-0.0119161
850.421	-0.0134850
850.499	-0.0148248
850.577	-0.0159427
850.655	-0.0166598
850.733	-0.0170119
850.811	-0.0168736
850.889	-0.0162639
850.968	-0.0152443
851.046	-0.0136347
851.124	-0.0117160
851.202	-0.00954039
851.280	-0.00722313
851.358	-0.00495089
851.436	-0.00282423
851.514	-0.000930330
851.593	0.000643878
851.671	0.00187893
851.749	0.00280760
851.827	0.00345209
851.905	0.00392118
851.983	0.00426538
852.061	0.00452889
852.139	0.00475822
852.218	0.00502877
852.296	0.00529163
852.374	0.00555032
852.452	0.00580649
852.530	0.00594295
852.608	0.00600485
852.686	0.00596472
852.764	0.00590192
852.843	0.00571316
852.921	0.00549309
852.999	0.00527384
853.077	0.00503087
853.155	0.00484389
853.233	0.00462944
853.311	0.00438234
853.389	0.00416000
853.468	0.00379288
853.546	0.00343879
853.624	0.00302438
853.702	0.00260456
853.780	0.00226913
853.858	0.00193157
853.936	0.00171838
854.014	0.00171662
854.093	0.00180579
854.171	0.00212463
854.249	0.00253590
854.327	0.00309072
854.405	0.00369984
854.483	0.00431082
854.561	0.00479494
854.639	0.00511209
854.718	0.00516611
854.796	0.00504284
854.874	0.00461341
854.952	0.00401296
855.030	0.00338373
855.108	0.00273772
855.186	0.00205141
855.264	0.00150454
855.343	0.00104721
855.421	0.000590533
855.499	0.000136324
855.577	-0.000302179
855.655	-0.000737409
855.733	-0.00117491
855.811	-0.00165749
855.889	-0.00213654
855.968	-0.00261597
856.046	-0.00311000
856.124	-0.00357407
856.202	-0.00405634
856.280	-0.00445118
856.358	-0.00479772
856.436	-0.00512552
856.514	-0.00545512
856.593	-0.00569546
856.671	-0.00579586
856.749	-0.00594580
856.827	-0.00596438
856.905	-0.00596588
856.983	-0.00589319
857.061	-0.00573511
857.139	-0.00541425
857.218	-0.00513567
857.296	-0.00470695
857.374	-0.00428261
857.452	-0.00381198
857.530	-0.00332213
857.608	-0.00287024
857.686	-0.00232124
857.764	-0.00182854
857.843	-0.00133754
857.921	-0.000867628
857.999	-0.000361841
858.077	0.000100924
858.155	0.000570887
858.233	0.00102847
858.311	0.00145277
858.389	0.00183072
858.468	0.00221973
858.546	0.00255152
858.624	0.00277973
858.702	0.00298059
858.780	0.00313751
858.858	0.00324105
858.936	0.00334741
859.014	0.00331916
859.093	0.00337569
859.171	0.00335715
859.249	0.00328927
859.327	0.00323921
859.405	0.00318953
859.483	0.00306554
859.561	0.00297748
859.639	0.00282552
859.718	0.00271603
859.796	0.00257402
859.874	0.00240460
859.952	0.00222705
860.030	0.00208029
860.108	0.00198311
860.186	0.00183984
860.264	0.00178799
860.343	0.00173653
860.421	0.00166656
860.499	0.00159482
860.577	0.00144137
860.655	0.00121042
860.733	0.000955123
860.811	0.000747019
860.889	0.000459693
860.968	0.000192442
861.046	-0.0000406393
861.124	-0.000140871
861.202	-0.000324365
861.280	-0.000334428
861.358	-0.000384359
861.436	-0.000359945
861.514	-0.000306707
861.593	-0.000278913
861.671	-0.000274270
861.749	-0.000253545
861.827	-0.000131753
861.905	-0.0000444807
861.983	0.0000557924
862.061	0.000192881
862.139	0.000335768
862.218	0.000445895
862.296	0.000562678
862.374	0.000672614
862.452	0.000777083
862.530	0.000849127
862.608	0.000999034
862.686	0.00112646
862.764	0.00123124
862.843	0.00141189
862.921	0.00160203
862.999	0.00171755
863.077	0.00186951
863.155	0.00196839
863.233	0.00212869
863.311	0.00218066
863.389	0.00222880
863.468	0.00225674
863.546	0.00232132
863.624	0.00233819
863.702	0.00235458
863.780	0.00236153
863.858	0.00239175
863.936	0.00237365
864.014	0.00230944
864.093	0.00223443
864.171	0.00218399
864.249	0.00206104
864.327	0.00191648
864.405	0.00187147
864.483	0.00176090
864.561	0.00172439
864.639	0.00164298
864.718	0.00159288
864.796	0.00158323
864.874	0.00149380
864.952	0.00144074
865.030	0.00145016
865.108	0.00133559
865.186	0.00127612
865.264	0.00113697
865.343	0.00104008
865.421	0.000931189
865.499	0.000732157
865.577	0.000483252
865.655	0.000246607
865.733	-0.000128469
865.811	-0.000501314
865.889	-0.000940046
865.968	-0.00145419
866.046	-0.00194295
866.124	-0.00243556
866.202	-0.00300172
866.280	-0.00346233
866.358	-0.00394127
866.436	-0.00444408
866.514	-0.00488820
866.593	-0.00530423
866.671	-0.00570357
866.749	-0.00600264
866.827	-0.00633695
866.905	-0.00653099
866.983	-0.00676909
867.061	-0.00694589
867.139	-0.00704921
867.218	-0.00705563
867.296	-0.00703085
867.374	-0.00692171
867.452	-0.00670696
867.530	-0.00647719
867.608	-0.00614080
867.686	-0.00581011
867.764	-0.00537004
867.843	-0.00489781
867.921	-0.00442172
867.999	-0.00397297
868.077	-0.00337960
868.155	-0.00272389
868.233	-0.00215978
868.311	-0.00156655
868.389	-0.000950483
868.468	-0.000382173
868.546	0.000141127
868.624	0.000669009
868.702	0.00111670
868.780	0.00147043
868.858	0.00172792
868.936	0.00201266
869.014	0.00217158
869.093	0.00235325
869.171	0.00249470
869.249	0.00260240
869.327	0.00258761
869.405	0.00256845
869.483	0.00253227
869.561	0.00245568
869.639	0.00226636
869.718	0.00208920
869.796	0.00177697
869.874	0.00152105
869.952	0.00125621
870.030	0.000936919
870.108	0.000660742
870.186	0.000435038
870.264	0.000164012
870.343	-0.0000875601
870.421	-0.000335260
870.499	-0.000588617
870.577	-0.000907915
870.655	-0.00116742
870.733	-0.00144967
870.811	-0.00166314
870.889	-0.00182789
870.968	-0.00206764
871.046	-0.00220962
871.124	-0.00240627
871.202	-0.00257589
871.280	-0.00269964
871.358	-0.00292967
871.436	-0.00310342
871.514	-0.00328956
871.593	-0.00338245
871.671	-0.00343878
871.749	-0.00340111
871.827	-0.00329960
871.905	-0.00309916
871.983	-0.00290476
872.061	-0.00263048
872.139	-0.00241003
872.218	-0.00210477
872.296	-0.00173653
872.374	-0.00137855
872.452	-0.00100940
872.530	-0.000628274
872.608	-0.000172082
872.686	0.000298209
872.764	0.000759188
872.843	0.00119836
872.921	0.00161753
872.999	0.00197098
873.077	0.00229924
873.155	0.00259271
873.233	0.00281473
873.311	0.00308229
873.389	0.00328494
873.468	0.00353125
873.546	0.00375700
873.624	0.00403272
873.702	0.00420953
873.780	0.00446084
873.858	0.00466923
873.936	0.00480472
874.014	0.00495895
874.093	0.00512256
874.171	0.00528964
874.249	0.00539222
874.327	0.00553603
874.405	0.00566898
874.483	0.00570207
874.561	0.00563277
874.639	0.00554559
874.718	0.00534921
874.796	0.00513137
874.874	0.00475544
874.952	0.00441719
875.030	0.00395481
875.108	0.00345934
875.186	0.00298305
875.264	0.00252653
875.343	0.00205483
875.421	0.00155763
875.499	0.00101531
875.577	0.000513392
875.655	0.0000186105
875.733	-0.000372751
875.811	-0.000769769
875.889	-0.00109011
875.968	-0.00135120
876.046	-0.00153172
876.124	-0.00172377
876.202	-0.00184916
876.280	-0.00195491
876.358	-0.00199834
876.436	-0.00205561
876.514	-0.00205226
876.593	-0.00204048
876.671	-0.00209885
876.749	-0.00204744
876.827	-0.00204789
876.905	-0.00210422
876.983	-0.00213674
877.061	-0.00221155
877.139	-0.00222608
877.218	-0.00226409
877.296	-0.00236300
877.374	-0.00241155
877.452	-0.00244655
877.530	-0.00244513
877.608	-0.00237260
877.686	-0.00229349
877.764	-0.00224317
877.843	-0.00216944
877.921	-0.00208202
877.999	-0.00200799
878.077	-0.00201480
878.155	-0.00204129
878.233	-0.00204469
878.311	-0.00205776
878.389	-0.00211336
878.468	-0.00215851
